Sampling fequency [Hz]:	100	x-velocity [mm/s]: 	100	Track length [mm]:	5	Cycles:	3000
Fx	Fy	Fz	Tx	Ty	Tz	x-Position
1.070	2.103	-20.658	0.088	-0.152	-0.006	5602.000
1.045	1.676	-19.968	0.078	-0.149	-0.011	0.000
2.410	1.731	-20.715	0.080	-0.131	-0.008	7.000
5.102	1.178	-20.365	0.089	-0.087	0.006	7.000
1.358	0.464	-19.935	0.118	-0.156	0.023	144.000
2.572	-0.144	-19.408	0.126	-0.093	0.004	215.000
2.097	-0.633	-21.174	0.125	-0.136	0.015	324.000
1.849	0.084	-21.128	0.129	-0.096	-0.004	324.000
2.333	-0.040	-21.115	0.130	-0.089	0.018	782.000
2.893	-0.446	-20.907	0.121	-0.104	0.010	976.000
2.294	-0.054	-21.409	0.132	-0.091	0.018	1239.000
2.476	-0.320	-20.919	0.130	-0.103	0.008	1476.000
2.672	-0.336	-21.222	0.133	-0.080	0.012	1946.000
2.628	-0.486	-21.268	0.132	-0.071	0.010	2167.000
2.446	-0.152	-20.936	0.135	-0.056	0.009	2528.000
2.479	-0.117	-21.004	0.130	-0.048	0.016	2842.000
2.767	-0.086	-21.882	0.142	-0.032	0.013	3112.000
2.502	-0.238	-20.889	0.131	-0.035	0.005	3343.000
3.023	-0.218	-21.170	0.133	-0.055	0.020	3541.000
2.957	0.333	-21.290	0.137	-0.050	0.012	3673.000
4.264	-0.384	-21.948	0.131	-0.090	0.008	3822.000
0.200	0.733	-21.225	0.137	0.040	0.001	3896.000
2.605	-0.104	-20.037	0.129	-0.051	0.029	3962.000
2.851	-0.117	-20.567	0.128	-0.003	0.009	3997.000
1.195	-0.451	-19.194	0.116	-0.060	-0.009	3998.000
-2.081	-0.163	-18.466	0.116	-0.101	-0.007	3976.000
-2.094	-0.587	-18.679	0.117	-0.140	0.011	3976.000
-1.320	-0.548	-18.911	0.108	-0.108	-0.022	3843.000
-4.247	-0.763	-18.404	0.127	-0.116	-0.005	3660.000
-1.156	-0.059	-18.796	0.113	-0.130	-0.010	3526.000
-2.214	-0.442	-18.929	0.115	-0.120	-0.011	3350.000
-2.539	-0.275	-18.386	0.114	-0.112	-0.016	3179.000
-2.268	-0.224	-17.725	0.118	-0.140	-0.016	2942.000
-2.417	0.229	-17.792	0.115	-0.125	-0.004	2942.000
-1.908	-0.302	-17.212	0.110	-0.137	-0.015	2230.000
-2.623	-0.675	-16.933	0.117	-0.148	-0.007	1965.000
-1.861	-0.706	-16.754	0.118	-0.155	-0.017	1551.000
-2.068	-0.204	-17.630	0.116	-0.159	-0.016	1185.000
-2.352	-0.570	-17.646	0.115	-0.159	-0.011	942.000
-1.779	-0.248	-18.546	0.120	-0.178	0.001	765.000
-2.636	0.212	-18.182	0.121	-0.168	-0.020	550.000
-1.835	-0.572	-18.216	0.113	-0.188	-0.015	453.000
-2.506	0.356	-18.709	0.130	-0.200	-0.025	220.000
2.913	0.022	-17.971	0.105	-0.259	-0.002	129.000
-4.353	-0.996	-20.037	0.155	-0.198	0.004	45.000
-0.210	0.168	-19.649	0.113	-0.193	-0.024	13.000
-0.309	-0.424	-19.692	0.124	-0.167	-0.002	2.000
1.994	0.638	-20.271	0.115	-0.146	-0.007	23.000
2.645	-0.045	-20.658	0.142	-0.057	-0.001	23.000
5.508	0.647	-19.630	0.123	-0.179	0.009	163.000
0.008	-0.267	-21.108	0.143	-0.111	0.007	336.000
2.443	0.454	-19.797	0.107	-0.106	0.033	437.000
2.348	-0.517	-20.104	0.118	-0.105	0.010	437.000
2.721	0.045	-19.919	0.119	-0.103	0.032	928.000
2.679	-0.075	-20.820	0.126	-0.089	0.005	988.000
2.893	-0.304	-20.508	0.128	-0.082	0.016	1406.000
2.697	0.015	-20.295	0.123	-0.064	0.010	1798.000
1.875	-0.207	-20.438	0.136	-0.095	0.014	2053.000
2.401	-0.069	-20.456	0.130	-0.071	-0.002	2323.000
2.105	-0.003	-20.964	0.124	-0.060	0.010	2679.000
2.117	-0.425	-20.865	0.126	-0.043	0.013	2679.000
1.984	-0.274	-20.112	0.122	-0.047	-0.012	3258.000
2.973	-0.134	-20.028	0.124	-0.054	0.032	3421.000
1.632	-0.164	-20.032	0.126	-0.025	0.009	3610.000
1.364	0.040	-20.101	0.125	-0.026	0.006	3758.000
-2.311	0.334	-20.006	0.144	0.002	-0.012	3856.000
2.498	-0.706	-20.211	0.120	-0.015	0.034	3916.000
3.125	-0.022	-19.770	0.126	-0.014	0.002	3916.000
3.565	-0.642	-19.509	0.117	-0.021	0.012	4000.000
0.950	-0.311	-19.570	0.132	-0.037	0.007	3997.000
-3.146	-1.181	-20.013	0.144	-0.121	-0.008	3960.000
-2.831	-0.644	-19.525	0.122	-0.068	-0.016	3928.000
-4.993	-0.243	-19.391	0.159	-0.117	-0.021	3804.000
0.350	-0.592	-18.601	0.120	-0.150	0.005	3685.000
-3.389	-1.158	-19.139	0.144	-0.117	-0.023	3523.000
-1.996	-0.158	-18.787	0.125	-0.121	-0.005	3353.000
-1.877	-0.325	-18.185	0.123	-0.137	-0.013	3281.000
-1.710	-0.309	-18.630	0.113	-0.113	-0.008	3281.000
-1.864	-0.194	-18.087	0.118	-0.137	-0.017	2559.000
-2.040	0.143	-17.606	0.120	-0.130	-0.008	2195.000
-0.925	-0.312	-17.397	0.106	-0.133	-0.021	1880.000
-1.534	-0.298	-17.172	0.108	-0.149	-0.007	1536.000
-1.635	-0.309	-18.446	0.117	-0.152	-0.013	1295.000
-1.175	-0.371	-17.609	0.118	-0.154	-0.016	1295.000
-2.031	-0.206	-17.592	0.112	-0.178	-0.011	1295.000
-0.630	0.061	-17.226	0.110	-0.183	-0.012	553.000
-2.331	-0.423	-18.699	0.117	-0.160	-0.025	461.000
-1.782	0.201	-17.810	0.114	-0.181	-0.019	251.000
-2.539	-1.373	-19.030	0.117	-0.174	-0.016	251.000
1.726	-0.215	-16.895	0.096	-0.209	0.013	251.000
-2.430	-0.830	-18.477	0.144	-0.200	-0.027	13.000
-2.525	0.141	-21.026	0.128	-0.236	0.000	0.000
0.563	0.000	-20.023	0.122	-0.151	-0.006	3.000
2.498	0.236	-19.747	0.123	-0.167	0.009	70.000
1.843	1.610	-19.923	0.108	-0.071	0.006	136.000
4.604	-0.368	-19.662	0.121	-0.151	0.012	136.000
1.446	-0.468	-20.528	0.119	-0.049	0.008	372.000
3.870	-0.472	-19.620	0.125	-0.120	0.008	568.000
1.713	-0.137	-19.761	0.126	-0.076	0.018	848.000
3.124	-0.918	-20.245	0.119	-0.116	0.006	1013.000
1.745	0.032	-21.065	0.132	-0.087	0.017	1013.000
2.489	-0.253	-20.724	0.130	-0.088	0.007	1582.000
2.336	-0.074	-21.113	0.127	-0.066	0.013	1882.000
2.659	0.043	-20.979	0.124	-0.054	0.014	2276.000
2.572	-0.084	-21.265	0.132	-0.059	0.023	2623.000
2.802	-0.172	-21.212	0.123	-0.041	0.008	2862.000
2.172	0.164	-20.892	0.125	-0.045	0.012	3138.000
1.963	-0.329	-20.035	0.127	-0.027	0.020	3378.000
2.641	-0.335	-19.744	0.125	-0.033	-0.001	3587.000
3.180	-0.131	-19.301	0.118	-0.051	0.014	3707.000
0.788	-0.515	-20.549	0.131	-0.025	-0.009	3789.000
3.962	-1.322	-20.056	0.104	-0.052	0.025	3789.000
1.345	0.565	-20.096	0.126	-0.049	0.004	3983.000
0.677	-0.097	-19.168	0.114	-0.042	0.012	4000.000
0.510	-0.248	-18.595	0.113	-0.045	-0.003	3999.000
-3.637	-1.137	-18.640	0.139	-0.155	-0.009	3971.000
-3.050	-0.761	-18.692	0.153	-0.142	-0.016	3889.000
2.232	-0.359	-18.678	0.118	-0.163	0.004	3790.000
-5.002	-0.540	-19.683	0.132	-0.065	-0.029	3705.000
-0.699	-0.284	-17.781	0.119	-0.149	0.005	3584.000
-2.458	-0.340	-19.286	0.122	-0.126	-0.020	3343.000
-2.083	-0.238	-18.854	0.121	-0.122	-0.014	3138.000
-1.995	-0.401	-18.572	0.123	-0.129	-0.020	2851.000
-1.597	-0.094	-18.243	0.119	-0.133	-0.015	2851.000
-2.062	-0.249	-18.860	0.119	-0.154	-0.018	2851.000
-0.585	-0.287	-18.595	0.117	-0.117	-0.011	1936.000
-1.762	-0.283	-17.821	0.115	-0.139	-0.010	1563.000
-1.088	-0.411	-17.531	0.118	-0.161	-0.008	1396.000
-1.593	-0.386	-17.921	0.120	-0.158	-0.005	1089.000
-1.108	0.110	-18.783	0.114	-0.184	-0.012	752.000
-2.820	-0.200	-18.043	0.115	-0.159	-0.013	541.000
-1.172	-0.206	-17.218	0.114	-0.183	-0.001	397.000
-2.816	0.460	-17.892	0.129	-0.150	-0.008	302.000
-2.598	0.513	-16.816	0.114	-0.188	-0.029	302.000
-1.309	-0.449	-17.946	0.128	-0.152	-0.028	59.000
-1.604	-0.384	-18.315	0.121	-0.187	0.001	10.000
-2.189	0.389	-18.950	0.115	-0.197	-0.013	0.000
0.809	0.162	-18.205	0.117	-0.136	0.002	17.000
0.414	-0.109	-19.604	0.131	-0.147	0.000	75.000
4.939	0.537	-19.285	0.111	-0.187	0.014	153.000
-0.772	-0.159	-21.173	0.117	-0.047	0.003	226.000
5.035	0.664	-19.588	0.110	-0.118	0.022	226.000
2.113	-0.439	-20.701	0.128	-0.080	0.004	616.000
4.110	-0.336	-20.211	0.118	-0.120	0.008	843.000
1.529	-0.018	-21.069	0.139	-0.087	0.003	998.000
2.853	-0.247	-20.609	0.124	-0.105	0.018	1239.000
2.125	0.153	-20.429	0.127	-0.073	0.012	1552.000
3.060	0.096	-20.430	0.126	-0.074	0.014	1989.000
2.279	-0.176	-21.093	0.128	-0.071	0.016	2255.000
2.977	-0.306	-21.461	0.129	-0.051	0.014	2552.000
2.456	-0.055	-20.646	0.127	-0.033	0.012	2728.000
2.637	0.189	-21.157	0.129	-0.057	0.018	3161.000
3.453	-0.454	-21.452	0.136	-0.054	0.009	3333.000
2.282	0.142	-20.418	0.135	-0.030	0.026	3502.000
1.958	0.052	-19.894	0.120	-0.041	0.002	3720.000
1.057	0.133	-19.703	0.130	-0.027	0.008	3720.000
2.249	0.040	-20.868	0.143	-0.037	-0.004	3720.000
1.247	-0.038	-19.351	0.111	-0.074	0.021	3956.000
1.255	-0.270	-19.575	0.117	-0.025	0.010	3956.000
1.870	-0.234	-20.060	0.124	-0.026	0.003	4000.000
-1.502	-0.308	-19.123	0.113	-0.092	-0.006	3985.000
-3.758	-0.881	-19.784	0.148	-0.128	-0.016	3925.000
-2.755	0.328	-18.500	0.148	-0.142	-0.018	3849.000
-3.190	-0.679	-20.469	0.146	-0.132	-0.021	3849.000
-3.046	-0.646	-17.801	0.140	-0.147	-0.007	3578.000
-2.211	0.018	-18.639	0.118	-0.113	-0.027	3429.000
-2.684	-0.251	-18.330	0.119	-0.122	-0.006	3223.000
-2.358	-0.339	-17.809	0.115	-0.126	-0.013	3223.000
-2.143	-0.384	-17.266	0.113	-0.128	-0.019	2659.000
-2.882	-0.642	-17.602	0.117	-0.139	-0.006	2427.000
-1.097	-0.103	-17.250	0.115	-0.107	-0.013	2075.000
-1.235	-0.698	-17.615	0.118	-0.127	-0.006	1704.000
-0.800	-0.580	-17.671	0.127	-0.150	-0.008	1360.000
-0.668	-0.359	-18.036	0.121	-0.128	-0.010	1085.000
-0.565	-0.442	-17.934	0.118	-0.171	-0.019	912.000
-1.228	-0.539	-18.744	0.128	-0.156	-0.015	912.000
-1.503	-0.298	-17.491	0.114	-0.174	-0.013	453.000
-1.154	-0.136	-18.069	0.119	-0.173	0.008	301.000
-4.474	-0.347	-18.501	0.124	-0.119	-0.024	164.000
-0.455	-0.640	-19.455	0.120	-0.201	0.004	89.000
-4.108	-0.545	-19.238	0.155	-0.229	0.002	89.000
-0.583	-0.269	-19.477	0.115	-0.210	-0.017	3.000
-1.349	-0.279	-20.404	0.127	-0.191	-0.003	0.000
0.846	-0.108	-19.863	0.124	-0.146	-0.008	29.000
1.120	0.143	-19.651	0.132	-0.170	0.007	72.000
4.524	1.535	-19.794	0.116	-0.154	0.016	128.000
0.772	-0.342	-22.101	0.120	-0.067	0.008	128.000
4.351	0.165	-19.942	0.108	-0.099	0.010	429.000
3.143	-0.510	-21.178	0.124	-0.098	-0.002	630.000
3.441	0.110	-20.671	0.129	-0.112	0.017	800.000
1.947	0.164	-20.158	0.131	-0.090	0.005	1043.000
2.104	-0.024	-20.762	0.124	-0.101	0.022	1388.000
2.071	0.020	-21.149	0.127	-0.074	0.004	1388.000
2.695	0.010	-21.238	0.128	-0.080	0.008	1388.000
2.644	0.302	-21.192	0.123	-0.061	0.018	2296.000
2.822	-0.194	-21.137	0.133	-0.055	0.015	2573.000
2.462	0.109	-21.321	0.125	-0.040	0.017	2883.000
2.179	-0.199	-19.794	0.120	-0.048	0.016	3129.000
3.036	-0.045	-18.982	0.120	-0.051	0.027	3255.000
2.543	-0.059	-19.600	0.126	-0.028	-0.010	3562.000
2.430	0.302	-19.816	0.127	-0.045	0.021	3685.000
-0.635	0.124	-20.134	0.135	0.002	-0.007	3809.000
3.449	-0.750	-20.418	0.122	-0.070	0.015	3924.000
0.929	0.462	-19.087	0.118	-0.059	0.007	3924.000
1.041	-0.193	-18.731	0.108	-0.035	0.018	3924.000
1.828	-0.288	-19.121	0.116	-0.032	-0.006	4000.000
0.669	-0.342	-19.404	0.115	-0.044	0.005	3994.000
-0.996	-0.403	-19.172	0.122	-0.104	-0.013	3940.000
-1.339	-0.720	-19.085	0.089	-0.109	-0.016	3872.000
-1.392	-0.367	-20.142	0.135	-0.135	-0.020	3841.000
-2.532	-0.083	-18.861	0.106	-0.100	-0.016	3841.000
-1.366	-0.554	-18.457	0.105	-0.110	-0.013	3435.000
-2.229	-0.473	-19.562	0.124	-0.134	-0.011	3224.000
-2.480	-0.398	-18.829	0.120	-0.136	-0.019	2989.000
-2.212	-0.284	-18.451	0.110	-0.133	-0.010	2773.000
-2.701	-0.154	-18.611	0.117	-0.160	-0.014	2459.000
-1.365	-0.582	-17.923	0.117	-0.143	-0.011	2400.000
-2.346	0.156	-17.901	0.102	-0.160	-0.016	1803.000
-1.714	0.138	-18.068	0.109	-0.159	-0.011	1481.000
-2.307	0.120	-18.368	0.115	-0.161	-0.020	1179.000
-1.449	-0.128	-18.400	0.108	-0.175	-0.003	968.000
-2.334	-0.408	-18.792	0.122	-0.183	-0.021	968.000
-2.051	0.437	-17.069	0.115	-0.180	-0.000	492.000
-1.589	0.007	-18.283	0.112	-0.178	-0.022	334.000
-3.397	0.260	-19.166	0.119	-0.152	-0.010	193.000
0.761	-0.451	-17.018	0.116	-0.266	-0.005	130.000
-1.611	1.139	-20.121	0.125	-0.195	-0.021	53.000
-1.978	-0.457	-17.880	0.125	-0.220	-0.002	9.000
-1.030	-0.311	-18.694	0.134	-0.173	-0.015	1.000
0.850	0.351	-21.240	0.123	-0.158	0.006	27.000
5.028	0.429	-20.073	0.113	-0.121	0.014	99.000
-1.429	-0.043	-20.290	0.145	-0.062	-0.006	99.000
4.304	0.004	-18.942	0.109	-0.107	0.019	275.000
1.029	0.080	-22.201	0.138	-0.123	-0.002	440.000
2.668	-0.100	-20.789	0.124	-0.143	0.018	644.000
1.259	-0.202	-20.145	0.116	-0.085	0.008	869.000
3.490	-0.169	-19.964	0.117	-0.110	0.014	1111.000
2.688	-0.266	-20.638	0.125	-0.064	0.008	1111.000
3.450	0.000	-20.795	0.131	-0.073	0.013	1111.000
1.733	-0.067	-20.835	0.132	-0.075	0.014	2043.000
2.207	-0.493	-21.278	0.133	-0.072	0.021	2395.000
1.830	-0.179	-20.191	0.123	-0.054	0.010	2680.000
2.029	-0.277	-20.671	0.125	-0.054	0.001	2723.000
2.171	-0.645	-21.409	0.128	-0.062	0.011	2723.000
1.245	-0.209	-21.735	0.130	-0.026	0.007	3383.000
2.842	-0.283	-21.037	0.127	-0.046	0.020	3581.000
1.267	0.112	-21.148	0.137	-0.028	0.008	3738.000
3.925	-1.441	-20.488	0.112	-0.049	0.022	3855.000
3.408	-0.295	-19.052	0.101	-0.024	-0.005	3914.000
3.735	-0.132	-19.648	0.124	-0.009	0.019	3963.000
1.574	-0.090	-19.121	0.121	-0.035	0.012	4000.000
1.301	-0.220	-19.422	0.120	-0.044	-0.004	3999.000
-1.701	-0.115	-19.363	0.122	-0.101	-0.013	3950.000
-2.210	0.512	-19.807	0.109	-0.095	-0.024	3950.000
-4.753	-0.516	-20.098	0.146	-0.098	-0.017	3950.000
-0.732	-0.228	-18.338	0.102	-0.147	-0.011	3613.000
-3.102	0.211	-19.087	0.107	-0.076	-0.017	3469.000
-2.214	-0.411	-18.349	0.116	-0.121	-0.005	3249.000
-2.150	-0.208	-19.165	0.120	-0.135	-0.009	3031.000
-2.687	0.014	-18.537	0.117	-0.131	-0.013	3031.000
-2.438	0.073	-17.994	0.117	-0.144	-0.017	3031.000
-2.353	-0.095	-17.914	0.115	-0.143	-0.017	2134.000
-2.622	-0.369	-17.092	0.106	-0.163	-0.009	1756.000
-1.946	-0.158	-18.643	0.118	-0.167	-0.015	1414.000
-2.468	-0.038	-19.562	0.124	-0.181	-0.014	1228.000
-2.035	0.030	-18.021	0.112	-0.186	-0.010	942.000
-2.620	-0.572	-18.581	0.118	-0.173	-0.018	698.000
-1.357	-0.380	-18.261	0.114	-0.201	-0.005	488.000
-2.079	-0.126	-18.605	0.114	-0.186	-0.013	317.000
-0.897	0.493	-19.327	0.124	-0.217	-0.006	195.000
-3.874	-0.999	-19.488	0.128	-0.154	0.008	195.000
-2.102	-0.751	-19.465	0.108	-0.253	-0.032	195.000
-2.124	-0.632	-19.198	0.126	-0.192	0.008	3.000
-1.166	-0.457	-18.982	0.128	-0.179	-0.017	0.000
-1.784	0.060	-19.890	0.123	-0.202	0.003	1.000
2.647	0.599	-19.586	0.116	-0.129	-0.000	22.000
4.888	1.538	-19.306	0.107	-0.147	0.034	120.000
3.873	0.866	-19.286	0.117	-0.120	-0.007	214.000
4.932	0.641	-21.029	0.143	-0.110	0.024	365.000
0.923	-0.367	-20.397	0.120	-0.086	0.001	552.000
2.324	-0.484	-20.608	0.118	-0.111	0.005	751.000
1.601	-0.209	-20.529	0.120	-0.095	0.013	910.000
2.687	0.396	-20.893	0.121	-0.097	0.016	910.000
2.745	0.152	-20.950	0.127	-0.086	0.012	1412.000
2.495	-0.543	-21.505	0.138	-0.080	0.005	1878.000
2.917	0.092	-21.065	0.133	-0.063	0.018	1974.000
2.521	-0.235	-21.256	0.131	-0.063	0.011	1974.000
2.408	0.104	-21.512	0.133	-0.060	0.009	2729.000
2.863	-0.018	-21.536	0.132	-0.039	0.008	3055.000
1.934	-0.312	-21.030	0.129	-0.037	0.018	3272.000
3.071	0.164	-20.828	0.131	-0.047	0.016	3445.000
1.735	-0.519	-19.936	0.113	-0.030	-0.005	3568.000
2.538	-0.664	-19.507	0.114	-0.010	0.015	3804.000
-2.918	0.159	-20.869	0.132	0.025	-0.001	3898.000
4.615	-0.681	-19.090	0.108	-0.028	0.002	3956.000
1.294	0.376	-19.475	0.119	-0.031	0.031	3994.000
0.707	-0.464	-18.625	0.109	-0.056	0.003	4000.000
-0.737	-1.035	-18.693	0.132	-0.037	-0.012	3985.000
2.327	0.744	-18.252	0.090	-0.117	-0.013	3905.000
-1.988	-1.124	-18.919	0.105	-0.080	-0.014	3829.000
-1.513	0.444	-20.007	0.102	-0.097	-0.017	3704.000
-0.301	0.058	-19.170	0.098	-0.122	-0.016	3619.000
-2.321	-0.594	-19.062	0.127	-0.127	-0.006	3355.000
-2.097	-0.326	-18.520	0.120	-0.133	-0.024	3115.000
-1.590	0.091	-18.546	0.115	-0.124	-0.010	2896.000
-2.256	-0.132	-19.065	0.115	-0.126	-0.015	2654.000
-2.638	-0.254	-19.078	0.117	-0.153	-0.016	2352.000
-1.445	-0.658	-18.490	0.116	-0.142	-0.008	2352.000
-3.381	-0.125	-18.662	0.117	-0.184	-0.013	1757.000
-1.577	-0.132	-18.480	0.108	-0.166	-0.012	1313.000
-1.878	-0.162	-17.665	0.109	-0.172	-0.000	1031.000
-2.566	-0.435	-17.976	0.114	-0.182	-0.014	771.000
-3.399	0.003	-18.620	0.118	-0.179	-0.014	771.000
-1.480	-0.075	-17.436	0.109	-0.195	-0.009	771.000
-1.410	-0.168	-18.001	0.106	-0.194	0.003	290.000
1.238	0.829	-18.105	0.109	-0.201	0.011	198.000
-3.185	0.355	-20.676	0.133	-0.142	-0.018	70.000
-0.546	-0.307	-18.814	0.117	-0.204	0.008	21.000
-2.319	-0.156	-18.402	0.124	-0.170	-0.020	2.000
-1.410	-0.043	-19.518	0.123	-0.191	-0.008	2.000
-1.705	-0.062	-19.762	0.119	-0.197	-0.008	0.000
0.839	-0.135	-19.923	0.124	-0.153	-0.006	16.000
2.135	0.048	-20.359	0.124	-0.167	0.006	78.000
2.168	1.525	-20.029	0.111	-0.096	0.016	118.000
4.249	-0.184	-20.342	0.128	-0.150	0.015	191.000
1.787	-0.582	-20.660	0.114	-0.053	0.009	191.000
3.874	-0.560	-19.977	0.117	-0.112	-0.011	554.000
1.722	-0.053	-20.868	0.129	-0.079	0.013	767.000
2.880	-0.437	-20.086	0.124	-0.112	0.010	942.000
1.314	0.037	-20.952	0.128	-0.096	0.009	1319.000
2.606	0.068	-20.380	0.123	-0.074	0.011	1650.000
2.450	-0.014	-20.838	0.125	-0.075	0.009	1908.000
2.800	-0.466	-21.274	0.123	-0.056	0.017	2410.000
2.889	0.052	-21.246	0.131	-0.049	0.016	2681.000
3.031	-0.031	-21.542	0.126	-0.044	0.010	2918.000
2.218	0.119	-20.605	0.129	-0.037	0.001	3058.000
2.273	-0.083	-21.060	0.126	-0.032	0.028	3058.000
2.925	-0.040	-21.189	0.127	-0.033	0.001	3559.000
3.511	0.020	-20.948	0.128	-0.048	0.014	3679.000
0.437	-0.445	-21.377	0.133	-0.027	-0.011	3825.000
4.041	-1.231	-19.629	0.100	-0.058	0.021	3917.000
1.233	0.475	-19.813	0.129	-0.035	-0.006	3917.000
0.871	0.070	-19.306	0.116	-0.054	0.037	4000.000
1.962	-0.061	-19.517	0.121	-0.025	-0.021	3992.000
-1.821	-0.149	-19.306	0.121	-0.122	-0.007	3958.000
-1.390	1.391	-18.738	0.094	-0.061	-0.028	3878.000
-4.094	-0.013	-18.699	0.141	-0.128	-0.027	3784.000
-1.076	0.052	-18.015	0.118	-0.143	-0.014	3784.000
-2.709	0.603	-19.522	0.112	-0.089	-0.015	3514.000
-2.316	-0.166	-18.330	0.120	-0.121	-0.018	3289.000
-2.306	-0.440	-18.941	0.120	-0.133	-0.007	3034.000
-2.714	-0.463	-18.056	0.113	-0.136	-0.018	2964.000
-2.183	-0.094	-17.990	0.115	-0.148	0.002	2964.000
-2.445	-0.024	-17.734	0.109	-0.133	-0.024	2185.000
-2.825	-0.505	-17.334	0.126	-0.163	-0.008	1843.000
-1.908	-0.453	-17.782	0.120	-0.154	-0.017	1462.000
-2.381	-0.418	-17.969	0.110	-0.171	-0.000	1200.000
-1.846	-0.226	-17.467	0.115	-0.177	-0.004	903.000
-2.347	-0.235	-17.560	0.119	-0.158	-0.020	903.000
-1.796	-0.638	-18.094	0.117	-0.200	-0.016	538.000
-2.044	-0.153	-18.454	0.118	-0.182	-0.012	355.000
-0.804	-0.559	-18.749	0.109	-0.212	-0.019	236.000
-4.281	-1.746	-19.899	0.123	-0.085	0.002	139.000
-2.147	-0.686	-18.963	0.107	-0.272	-0.020	45.000
-2.400	-0.274	-19.712	0.134	-0.171	-0.002	45.000
-0.654	-0.444	-18.407	0.120	-0.179	-0.016	45.000
-1.728	-0.186	-19.401	0.124	-0.196	-0.005	0.000
0.517	-0.046	-20.136	0.121	-0.144	-0.004	10.000
2.663	0.975	-20.062	0.103	-0.140	0.004	10.000
-0.435	0.554	-20.523	0.099	-0.046	-0.009	177.000
4.516	0.834	-18.377	0.121	-0.157	-0.012	278.000
0.710	0.206	-21.152	0.133	-0.061	0.019	371.000
2.999	0.303	-19.935	0.127	-0.104	0.008	611.000
1.494	-0.119	-20.544	0.129	-0.085	0.017	856.000
3.002	0.018	-20.320	0.122	-0.122	0.004	1089.000
1.538	0.278	-21.100	0.130	-0.090	0.016	1278.000
2.648	-0.207	-21.092	0.123	-0.089	0.004	1559.000
2.536	-0.224	-21.380	0.128	-0.067	0.017	1559.000
3.159	-0.487	-21.369	0.130	-0.053	0.018	2312.000
2.357	-0.311	-21.477	0.131	-0.054	0.013	2678.000
2.625	-0.283	-21.294	0.128	-0.040	0.012	2837.000
2.293	-0.365	-21.298	0.130	-0.040	0.008	3192.000
1.917	-0.026	-21.320	0.127	-0.030	0.027	3313.000
2.775	-0.358	-21.314	0.129	-0.028	-0.006	3572.000
1.602	-0.741	-20.201	0.115	-0.017	0.005	3721.000
5.705	-1.225	-19.590	0.115	-0.097	0.013	3832.000
0.319	-0.351	-19.666	0.116	0.002	0.016	3869.000
2.789	-0.045	-18.645	0.113	-0.028	-0.012	3947.000
0.141	-0.010	-19.764	0.116	-0.055	0.018	3947.000
1.730	-0.172	-19.074	0.114	-0.034	0.010	4000.000
-1.804	-0.389	-19.608	0.119	-0.090	-0.004	3999.000
-2.379	-0.946	-18.972	0.131	-0.099	-0.008	3934.000
-4.201	-1.418	-19.465	0.115	-0.079	-0.028	3852.000
0.222	0.411	-18.285	0.116	-0.140	-0.003	3852.000
-3.635	-0.008	-19.138	0.124	-0.068	-0.011	3852.000
-1.601	-0.698	-18.253	0.110	-0.130	-0.019	3438.000
-1.747	-0.193	-18.891	0.120	-0.125	0.001	3244.000
-2.326	-0.315	-18.679	0.120	-0.123	-0.019	2967.000
-1.255	-0.101	-18.445	0.128	-0.124	-0.015	2717.000
-1.354	-0.120	-19.007	0.125	-0.131	-0.012	2717.000
-2.090	-0.381	-19.129	0.118	-0.151	-0.015	2717.000
-0.514	0.194	-18.502	0.113	-0.127	-0.007	1711.000
-1.971	-0.382	-18.914	0.126	-0.153	-0.008	1437.000
-1.234	-0.238	-18.277	0.107	-0.158	-0.017	1177.000
-1.560	-0.162	-18.209	0.118	-0.184	0.007	994.000
-0.822	0.007	-18.092	0.112	-0.183	-0.005	994.000
-1.616	0.278	-17.889	0.118	-0.153	-0.022	496.000
-0.832	0.052	-17.787	0.113	-0.186	-0.009	281.000
-1.540	-0.484	-18.693	0.118	-0.162	-0.020	186.000
1.949	-0.060	-18.645	0.105	-0.217	-0.002	107.000
-2.330	-1.363	-19.890	0.144	-0.168	-0.029	107.000
-1.838	0.202	-19.254	0.121	-0.200	0.003	0.000
-0.606	0.096	-20.825	0.120	-0.196	-0.014	3.000
2.017	0.847	-19.817	0.106	-0.148	0.008	40.000
3.346	-0.075	-20.503	0.134	-0.087	-0.009	98.000
6.301	-0.777	-19.874	0.123	-0.197	0.016	193.000
-1.474	-0.136	-21.775	0.140	-0.087	-0.010	320.000
3.229	0.013	-19.150	0.104	-0.131	0.035	475.000
0.968	0.081	-21.096	0.126	-0.097	-0.000	676.000
3.887	0.503	-20.457	0.117	-0.119	0.002	913.000
2.330	0.266	-21.017	0.130	-0.081	0.018	1048.000
3.193	-0.112	-20.792	0.130	-0.081	0.004	1327.000
2.072	-0.047	-21.021	0.133	-0.077	0.023	1699.000
1.347	-0.479	-20.726	0.117	-0.090	0.008	2053.000
2.182	0.081	-20.093	0.132	-0.071	0.016	2383.000
1.891	-0.439	-19.373	0.115	-0.059	0.004	2383.000
2.039	-0.013	-20.535	0.120	-0.046	0.010	2998.000
2.054	-0.371	-20.462	0.127	-0.053	0.007	3231.000
3.104	-0.428	-20.711	0.129	-0.068	0.022	3457.000
1.484	-0.073	-20.831	0.127	-0.026	0.002	3502.000
3.017	-0.495	-20.868	0.121	-0.058	0.010	3502.000
0.998	0.852	-19.663	0.143	-0.043	0.004	3863.000
0.792	0.268	-21.763	0.134	0.032	0.022	3934.000
3.371	-0.123	-20.066	0.116	-0.021	-0.017	3988.000
2.854	-0.062	-20.128	0.123	-0.022	0.021	4000.000
-0.791	-0.392	-20.757	0.123	-0.084	0.001	3986.000
-2.241	0.175	-20.120	0.120	-0.062	-0.019	3935.000
-0.796	0.357	-19.630	0.143	-0.137	-0.013	3935.000
-4.979	0.040	-20.245	0.116	-0.040	-0.023	3771.000
0.496	-0.447	-19.060	0.096	-0.128	-0.009	3615.000
-3.399	-0.212	-18.778	0.134	-0.113	-0.009	3432.000
-2.376	-0.168	-19.380	0.119	-0.112	-0.021	3314.000
-1.829	-0.336	-18.227	0.112	-0.131	-0.013	2990.000
-1.608	-0.403	-18.082	0.112	-0.121	-0.018	2753.000
-1.452	-0.321	-18.107	0.111	-0.135	-0.010	2529.000
-2.490	-0.161	-18.249	0.110	-0.164	-0.013	2113.000
-1.582	-0.212	-17.485	0.106	-0.148	-0.011	1719.000
-2.004	0.180	-17.743	0.100	-0.148	-0.007	1442.000
-2.093	-0.106	-17.618	0.117	-0.161	-0.005	1111.000
-2.427	-0.183	-17.497	0.105	-0.164	-0.014	921.000
-2.644	-0.217	-19.000	0.111	-0.185	-0.013	685.000
-1.334	-0.230	-18.957	0.107	-0.210	-0.012	491.000
-2.100	0.273	-19.210	0.127	-0.201	-0.004	352.000
-0.226	0.145	-18.697	0.129	-0.228	-0.006	230.000
-4.245	-0.948	-21.909	0.142	-0.176	0.008	98.000
0.088	0.178	-21.318	0.123	-0.167	0.002	31.000
-2.812	-0.321	-18.959	0.129	-0.220	-0.016	31.000
-1.784	0.136	-20.296	0.127	-0.204	-0.005	31.000
-1.285	-0.146	-19.229	0.113	-0.179	-0.003	7.000
1.781	0.287	-20.638	0.120	-0.122	0.000	43.000
1.297	0.310	-19.955	0.110	-0.154	-0.005	119.000
-1.745	0.495	-19.888	0.124	-0.072	-0.021	214.000
5.808	0.459	-18.750	0.099	-0.134	-0.000	332.000
1.686	-0.201	-20.966	0.139	-0.089	0.037	332.000
3.777	-0.547	-20.628	0.119	-0.112	0.011	332.000
2.035	-0.295	-20.740	0.124	-0.079	0.017	931.000
3.246	-0.556	-20.466	0.123	-0.110	0.006	1038.000
2.240	0.192	-20.838	0.128	-0.078	0.008	1480.000
2.991	-0.108	-20.856	0.122	-0.082	0.002	1720.000
3.237	-0.108	-21.435	0.128	-0.046	0.025	2136.000
2.514	-0.005	-20.476	0.121	-0.069	0.004	2428.000
2.102	-0.048	-21.131	0.126	-0.048	0.011	2755.000
2.338	-0.059	-21.192	0.123	-0.064	0.007	3021.000
2.374	-0.129	-21.550	0.128	-0.054	-0.001	3081.000
1.377	0.532	-21.316	0.130	-0.032	0.018	3441.000
2.522	-0.470	-19.943	0.118	-0.034	0.013	3579.000
3.569	-0.586	-20.788	0.115	-0.051	-0.001	3783.000
0.938	-1.545	-22.064	0.114	0.038	0.011	3874.000
3.931	-0.231	-19.417	0.104	-0.026	0.032	3959.000
0.189	-0.229	-19.970	0.119	-0.061	-0.022	3992.000
1.229	0.047	-19.946	0.129	-0.043	0.021	4000.000
0.895	-0.366	-19.611	0.119	-0.094	-0.008	3983.000
-2.754	-0.158	-18.953	0.131	-0.118	-0.004	3936.000
-0.147	-0.455	-19.497	0.107	-0.136	-0.021	3936.000
-4.120	-0.704	-19.249	0.121	-0.113	-0.013	3763.000
-1.812	-0.522	-19.089	0.123	-0.140	-0.002	3682.000
-2.424	-0.018	-19.062	0.124	-0.118	-0.020	3366.000
-2.622	-0.239	-18.350	0.112	-0.120	-0.007	3242.000
-2.031	-0.439	-17.892	0.117	-0.147	-0.016	2983.000
-2.291	-0.120	-18.442	0.116	-0.125	-0.013	2784.000
-2.306	-0.008	-17.788	0.116	-0.152	-0.018	2296.000
-2.355	-0.277	-17.137	0.114	-0.144	-0.010	1996.000
-2.157	-1.154	-17.261	0.123	-0.155	-0.022	1694.000
-2.014	-0.595	-16.793	0.111	-0.142	-0.014	1444.000
-1.883	-0.745	-16.833	0.112	-0.152	-0.015	1223.000
-1.997	-0.329	-18.425	0.116	-0.159	-0.002	1223.000
-3.059	-0.559	-17.444	0.119	-0.167	-0.010	611.000
-1.514	-0.233	-17.665	0.116	-0.183	-0.013	456.000
-2.701	0.234	-18.692	0.131	-0.184	-0.018	292.000
-1.548	-0.008	-18.241	0.123	-0.247	-0.004	156.000
-4.103	-1.053	-18.862	0.145	-0.209	0.001	73.000
-0.861	-0.255	-19.976	0.096	-0.196	-0.009	24.000
-0.964	-0.381	-19.217	0.130	-0.171	-0.007	14.000
-1.691	-0.267	-19.358	0.132	-0.191	-0.011	14.000
-0.895	0.004	-20.914	0.129	-0.205	-0.005	0.000
1.235	0.250	-19.977	0.111	-0.146	0.002	34.000
4.881	0.323	-19.344	0.113	-0.114	0.005	96.000
0.018	-0.926	-21.510	0.131	-0.090	-0.002	160.000
3.031	-0.177	-19.386	0.110	-0.106	0.008	160.000
1.533	-0.431	-20.984	0.115	-0.122	0.014	480.000
1.828	0.519	-20.034	0.124	-0.122	0.006	586.000
1.644	-0.384	-19.409	0.109	-0.098	0.010	878.000
2.725	0.090	-20.762	0.122	-0.112	0.012	1030.000
2.413	-0.155	-20.885	0.124	-0.085	0.007	1030.000
2.670	-0.069	-20.923	0.129	-0.077	0.017	1550.000
1.541	-0.045	-21.780	0.128	-0.071	0.003	1770.000
2.886	-0.390	-21.655	0.137	-0.069	0.020	2377.000
2.404	-0.042	-21.675	0.135	-0.052	0.014	2705.000
2.490	-0.032	-21.186	0.134	-0.048	0.002	2801.000
3.109	-0.098	-21.195	0.135	-0.047	0.004	3192.000
2.351	-0.296	-21.799	0.129	-0.024	0.009	3357.000
2.397	-0.483	-20.730	0.130	-0.030	0.017	3586.000
2.210	-0.064	-20.614	0.130	-0.043	-0.001	3730.000
4.855	-0.547	-20.267	0.118	-0.094	0.031	3869.000
1.079	0.410	-20.875	0.115	0.037	-0.012	3942.000
3.889	-0.380	-19.949	0.117	-0.025	0.005	3986.000
2.027	-0.182	-19.641	0.123	-0.026	0.024	4000.000
0.724	-0.066	-19.912	0.121	-0.056	0.002	4000.000
-3.755	-1.055	-19.237	0.137	-0.136	-0.018	3974.000
-1.964	-1.469	-18.599	0.134	-0.133	0.005	3893.000
-4.295	-1.680	-20.093	0.147	-0.105	-0.016	3796.000
-0.861	-0.744	-18.732	0.112	-0.138	-0.024	3675.000
-2.585	-0.758	-19.424	0.135	-0.121	0.010	3489.000
-1.963	-0.515	-17.900	0.116	-0.119	-0.040	3489.000
-2.004	-0.328	-17.850	0.119	-0.121	0.007	3489.000
-2.159	-0.392	-18.238	0.118	-0.127	-0.027	2855.000
-2.234	-0.370	-18.256	0.121	-0.150	0.001	2604.000
-1.564	-0.327	-17.891	0.112	-0.142	-0.023	2301.000
-0.505	-0.124	-16.465	0.118	-0.116	-0.003	1828.000
-1.516	-0.125	-17.794	0.097	-0.146	-0.008	1583.000
-1.245	-0.088	-16.971	0.112	-0.138	-0.007	1392.000
-0.428	-0.612	-17.622	0.109	-0.142	-0.008	1392.000
-2.145	-0.035	-18.538	0.115	-0.167	-0.015	806.000
-1.009	-0.090	-19.253	0.122	-0.182	-0.004	527.000
-1.852	-0.108	-18.732	0.124	-0.189	-0.016	412.000
-0.033	-0.967	-18.935	0.102	-0.186	-0.015	228.000
0.990	-0.476	-17.833	0.120	-0.253	0.007	121.000
-1.150	0.263	-19.146	0.130	-0.171	-0.028	121.000
-1.477	-0.936	-18.510	0.127	-0.220	-0.011	19.000
-2.564	0.129	-21.068	0.129	-0.220	-0.009	3.000
-1.062	-0.049	-19.344	0.117	-0.181	-0.008	3.000
-1.245	-0.305	-19.474	0.127	-0.186	-0.013	1.000
0.332	0.459	-19.940	0.119	-0.136	0.004	28.000
3.671	0.799	-20.735	0.094	-0.107	0.020	69.000
1.323	0.740	-20.228	0.142	-0.119	0.006	69.000
3.639	0.145	-21.038	0.122	-0.089	0.028	274.000
1.589	0.552	-20.592	0.141	-0.128	-0.020	444.000
2.532	-0.126	-20.576	0.117	-0.143	0.028	661.000
1.252	-0.049	-20.729	0.119	-0.100	0.011	857.000
2.399	-0.275	-21.211	0.112	-0.114	0.013	1111.000
2.571	0.025	-20.618	0.129	-0.086	0.016	1415.000
2.782	0.021	-21.083	0.127	-0.074	0.003	1636.000
2.065	-0.060	-21.495	0.140	-0.072	0.010	1926.000
3.148	-0.465	-21.643	0.131	-0.045	0.004	2400.000
2.558	-0.200	-22.158	0.133	-0.061	0.008	2667.000
3.107	-0.106	-21.619	0.132	-0.050	0.015	2942.000
2.292	0.011	-20.679	0.127	-0.033	0.007	3184.000
2.835	-0.020	-20.278	0.122	-0.025	0.010	3398.000
3.133	0.115	-20.806	0.132	-0.039	0.013	3525.000
1.903	-0.368	-20.651	0.129	-0.027	0.024	3525.000
-0.142	-1.033	-22.070	0.113	0.062	-0.010	3836.000
6.308	-0.485	-19.882	0.105	-0.093	0.019	3900.000
2.671	0.176	-21.053	0.143	0.010	0.027	3985.000
1.420	-0.369	-20.179	0.118	-0.054	-0.011	3999.000
0.589	-0.235	-20.424	0.124	-0.045	0.009	3998.000
-3.704	-0.842	-19.680	0.149	-0.135	-0.011	3979.000
-2.247	-1.181	-19.740	0.127	-0.106	0.002	3904.000
-4.853	-0.980	-20.075	0.159	-0.104	-0.027	3805.000
-0.291	-0.950	-18.870	0.108	-0.139	-0.006	3688.000
-3.011	-0.839	-19.590	0.132	-0.102	-0.004	3597.000
-2.075	-0.358	-19.445	0.115	-0.119	-0.024	3337.000
-2.055	-0.538	-18.212	0.117	-0.132	-0.006	3142.000
-2.128	-0.156	-18.653	0.124	-0.137	-0.011	2861.000
-1.918	-0.308	-18.577	0.123	-0.143	-0.014	2548.000
-2.549	-0.469	-18.039	0.118	-0.156	-0.013	2324.000
-0.392	-0.258	-17.869	0.108	-0.130	-0.006	2017.000
-0.620	0.273	-18.035	0.093	-0.153	-0.018	1566.000
-1.916	-0.344	-19.015	0.126	-0.160	-0.006	1264.000
-0.768	-0.273	-18.463	0.111	-0.149	-0.025	1114.000
-1.887	-0.165	-19.523	0.123	-0.171	-0.012	888.000
-0.710	0.028	-18.498	0.110	-0.198	-0.007	593.000
-1.929	-0.473	-19.450	0.125	-0.175	-0.010	444.000
-0.599	-0.651	-19.390	0.108	-0.193	-0.015	254.000
0.305	-0.718	-19.327	0.123	-0.230	-0.001	167.000
-0.280	0.309	-18.200	0.114	-0.182	-0.017	72.000
-1.567	-1.183	-19.079	0.143	-0.218	-0.018	17.000
-3.102	0.536	-20.703	0.134	-0.234	-0.005	0.000
0.890	0.222	-21.582	0.128	-0.157	0.001	25.000
2.105	1.233	-21.680	0.102	-0.099	0.004	95.000
4.872	-0.416	-21.210	0.105	-0.158	0.017	152.000
2.208	0.365	-22.173	0.120	-0.100	0.008	245.000
4.263	-0.848	-20.928	0.134	-0.160	0.030	442.000
0.857	0.340	-22.608	0.144	-0.091	0.020	628.000
3.648	-0.225	-21.189	0.130	-0.130	0.012	801.000
1.353	0.501	-20.863	0.134	-0.086	-0.005	801.000
2.616	-0.266	-21.629	0.117	-0.104	0.023	1274.000
3.058	-0.066	-21.678	0.133	-0.083	0.007	1456.000
2.918	0.031	-22.512	0.138	-0.078	0.012	2095.000
3.380	-0.087	-22.817	0.143	-0.043	0.011	2293.000
2.928	-0.059	-23.022	0.138	-0.059	0.011	2626.000
2.631	-0.062	-22.291	0.134	-0.045	0.012	2840.000
2.571	0.048	-22.057	0.132	-0.047	0.016	3230.000
3.017	-0.351	-21.095	0.117	-0.055	0.000	3354.000
2.125	-0.336	-19.624	0.125	-0.018	0.028	3610.000
2.284	-0.292	-19.147	0.112	-0.017	-0.011	3750.000
2.844	1.022	-18.990	0.122	-0.016	0.024	3841.000
0.293	0.678	-20.007	0.135	0.002	0.006	3933.000
3.489	-0.935	-18.891	0.104	-0.008	0.008	3977.000
0.170	-0.118	-19.799	0.106	-0.056	-0.007	4000.000
1.588	-0.117	-20.465	0.119	-0.044	0.016	4000.000
-0.976	-0.037	-19.084	0.127	-0.073	-0.004	3983.000
-3.594	-0.611	-19.731	0.125	-0.045	-0.021	3939.000
-2.363	0.054	-19.925	0.129	-0.101	-0.022	3861.000
-2.789	-0.318	-20.735	0.118	-0.068	-0.016	3731.000
-0.495	0.260	-19.063	0.107	-0.115	-0.016	3607.000
-2.970	-0.584	-20.054	0.130	-0.115	-0.017	3472.000
-2.270	-0.380	-20.128	0.127	-0.131	-0.017	3263.000
-2.189	-0.522	-19.850	0.125	-0.141	-0.007	3263.000
-1.926	-0.132	-19.359	0.124	-0.131	-0.020	2832.000
-1.804	-0.172	-19.255	0.121	-0.136	-0.009	2568.000
-2.076	-0.215	-18.464	0.116	-0.136	-0.014	2568.000
-0.890	0.037	-18.270	0.107	-0.131	-0.011	1746.000
-1.632	-0.083	-17.694	0.105	-0.148	-0.005	1746.000
-1.721	0.084	-17.594	0.120	-0.151	-0.006	1220.000
-1.936	-0.038	-17.458	0.099	-0.166	-0.020	1220.000
-2.205	-0.051	-17.204	0.103	-0.166	-0.004	1220.000
-0.896	-0.175	-16.587	0.104	-0.183	-0.016	1220.000
-1.704	-0.390	-16.626	0.110	-0.177	-0.004	343.000
-2.506	0.009	-18.273	0.112	-0.181	-0.013	183.000
-1.738	0.263	-18.803	0.123	-0.180	0.011	93.000
-2.289	0.031	-18.095	0.116	-0.099	-0.023	72.000
-1.934	-0.204	-18.790	0.123	-0.205	-0.007	72.000
-1.720	0.229	-18.786	0.119	-0.193	-0.014	0.000
0.702	0.188	-20.263	0.119	-0.148	0.007	16.000
1.840	1.004	-20.894	0.096	-0.100	-0.002	78.000
3.879	-0.645	-20.901	0.098	-0.130	0.019	178.000
3.576	0.117	-20.928	0.120	-0.118	0.006	291.000
3.868	-1.149	-21.635	0.137	-0.148	0.027	392.000
1.024	0.430	-22.122	0.145	-0.094	0.001	643.000
3.413	-0.317	-22.059	0.134	-0.127	0.017	832.000
1.661	0.213	-22.048	0.143	-0.097	0.000	979.000
2.833	-0.157	-21.858	0.134	-0.109	0.020	1386.000
3.335	-0.194	-22.601	0.139	-0.102	0.005	1655.000
3.028	-0.299	-22.111	0.134	-0.083	0.019	2034.000
3.023	-0.331	-20.711	0.130	-0.049	0.010	2337.000
2.250	-0.330	-20.576	0.132	-0.055	0.016	2658.000
2.482	0.075	-21.705	0.134	-0.045	0.010	2658.000
2.968	0.392	-21.492	0.139	-0.049	0.021	2658.000
2.704	-0.468	-22.287	0.127	-0.050	0.028	2658.000
2.454	-0.380	-22.601	0.134	-0.026	0.002	2658.000
2.170	-0.004	-22.551	0.124	-0.022	0.004	3721.000
4.530	0.615	-21.383	0.133	-0.048	0.012	3833.000
-0.410	0.555	-21.370	0.143	0.020	0.007	3920.000
3.687	-0.886	-20.039	0.110	-0.018	0.006	3973.000
0.071	0.106	-19.963	0.116	-0.054	0.002	4000.000
1.766	-0.184	-18.902	0.113	-0.039	0.015	4000.000
0.878	-0.156	-19.026	0.118	-0.070	-0.009	3997.000
-1.920	0.143	-18.562	0.106	-0.101	-0.015	3917.000
0.021	1.469	-18.673	0.101	-0.089	0.004	3826.000
-1.495	0.305	-19.188	0.118	-0.100	-0.021	3826.000
-2.245	0.361	-18.575	0.104	-0.098	0.007	3826.000
-1.935	-0.644	-17.973	0.115	-0.119	-0.038	3366.000
-2.010	-0.252	-18.019	0.115	-0.122	0.012	3308.000
-1.946	-0.274	-18.483	0.109	-0.118	-0.028	3308.000
-2.021	-0.442	-17.552	0.112	-0.135	0.002	2702.000
-2.358	-0.277	-17.232	0.115	-0.138	-0.013	2702.000
-2.242	-0.489	-17.618	0.115	-0.162	-0.010	1977.000
-2.040	-0.569	-18.117	0.120	-0.164	-0.018	1977.000
-2.126	-0.025	-18.036	0.110	-0.158	-0.004	1977.000
-2.516	-0.120	-17.629	0.116	-0.162	-0.015	1108.000
-2.343	-0.024	-17.041	0.105	-0.170	-0.009	810.000
-2.104	-0.328	-18.188	0.122	-0.199	-0.011	619.000
-2.620	-0.228	-17.927	0.111	-0.188	-0.008	438.000
-1.773	-0.927	-19.518	0.117	-0.195	-0.017	380.000
-3.812	-0.242	-19.896	0.120	-0.181	-0.018	380.000
0.142	-0.223	-19.580	0.131	-0.278	-0.018	65.000
-2.281	1.224	-20.722	0.116	-0.170	-0.009	25.000
-0.493	-0.562	-20.195	0.134	-0.180	-0.015	0.000
-0.985	-0.265	-21.293	0.140	-0.191	-0.008	2.000
2.315	0.886	-21.414	0.108	-0.129	0.006	33.000
1.697	-1.075	-20.709	0.136	-0.100	0.021	102.000
-1.863	0.657	-21.718	0.129	-0.035	-0.000	208.000
4.023	-0.157	-20.515	0.123	-0.214	0.014	338.000
2.312	0.693	-21.093	0.126	-0.092	-0.008	449.000
3.686	-0.112	-20.445	0.126	-0.118	0.012	600.000
1.542	0.035	-21.887	0.124	-0.081	0.009	904.000
3.527	-0.246	-21.464	0.128	-0.097	0.011	1171.000
2.128	0.042	-20.566	0.126	-0.078	0.013	1446.000
2.715	-0.034	-20.002	0.118	-0.093	0.002	1739.000
1.336	-0.073	-20.246	0.123	-0.090	0.016	1739.000
1.506	0.051	-21.074	0.130	-0.070	0.009	2359.000
2.163	0.132	-21.817	0.130	-0.068	0.010	2733.000
1.653	-0.090	-21.148	0.133	-0.058	0.010	3005.000
2.860	-0.315	-21.175	0.122	-0.052	0.020	3262.000
0.873	0.114	-21.922	0.133	-0.025	0.007	3456.000
3.188	0.039	-21.230	0.133	-0.050	0.009	3541.000
2.161	-0.314	-21.771	0.128	-0.024	0.011	3702.000
3.860	-0.938	-22.526	0.119	-0.088	0.018	3702.000
0.254	-0.416	-19.619	0.130	-0.070	0.009	3946.000
1.895	-0.309	-20.475	0.119	-0.020	0.030	3983.000
2.675	-0.160	-19.782	0.127	-0.013	-0.021	4000.000
-1.562	-0.116	-19.791	0.119	-0.095	0.001	3991.000
-3.238	-1.172	-20.373	0.140	-0.138	-0.021	3946.000
-3.778	-0.313	-19.546	0.129	-0.111	-0.032	3846.000
-2.214	-1.101	-18.971	0.138	-0.155	-0.008	3745.000
-4.317	-1.412	-19.253	0.145	-0.127	-0.040	3616.000
-1.410	-0.274	-18.383	0.114	-0.127	-0.003	3415.000
-1.879	-0.321	-18.441	0.115	-0.133	-0.019	3189.000
-2.815	-0.239	-18.566	0.122	-0.125	-0.003	2955.000
-2.024	-0.428	-19.595	0.119	-0.150	-0.016	2660.000
-2.560	-0.524	-18.057	0.125	-0.145	-0.023	2383.000
-2.047	-0.395	-18.032	0.112	-0.152	-0.014	2005.000
-1.607	-0.363	-18.408	0.120	-0.139	-0.011	1815.000
-1.835	-0.664	-18.191	0.124	-0.156	-0.006	1815.000
-1.371	-0.263	-17.593	0.122	-0.145	-0.005	1154.000
-1.150	0.027	-17.993	0.111	-0.158	-0.012	884.000
-0.254	-0.291	-17.799	0.116	-0.171	-0.014	657.000
-1.902	-0.437	-18.302	0.130	-0.169	-0.016	481.000
-0.705	-0.117	-18.732	0.115	-0.205	-0.002	286.000
-2.696	-0.664	-20.521	0.134	-0.186	-0.010	191.000
-0.703	-0.825	-18.338	0.121	-0.234	0.002	89.000
-3.284	0.378	-20.404	0.141	-0.226	-0.014	34.000
-0.442	-0.138	-20.723	0.134	-0.218	-0.010	1.000
-1.527	-0.327	-21.036	0.138	-0.181	-0.007	7.000
2.256	0.512	-20.582	0.119	-0.126	0.005	30.000
1.072	0.148	-21.559	0.122	-0.160	-0.006	108.000
0.384	1.008	-21.152	0.133	-0.106	-0.019	206.000
5.343	0.603	-20.543	0.115	-0.142	0.006	229.000
1.640	-0.087	-22.318	0.146	-0.102	0.037	229.000
4.082	-0.465	-21.663	0.120	-0.129	0.010	646.000
1.914	-0.359	-21.424	0.127	-0.083	0.017	814.000
2.749	-0.282	-21.520	0.128	-0.105	-0.005	1171.000
2.340	0.350	-22.338	0.139	-0.080	0.015	1430.000
3.190	-0.353	-21.897	0.125	-0.074	0.000	1430.000
3.034	-0.095	-22.869	0.137	-0.058	0.019	2077.000
2.426	-0.184	-21.684	0.129	-0.069	0.002	2317.000
2.299	-0.180	-22.364	0.134	-0.054	0.022	2317.000
2.301	-0.002	-22.951	0.134	-0.067	0.011	2999.000
2.171	-0.410	-21.941	0.133	-0.050	0.030	3187.000
1.641	0.226	-21.804	0.125	-0.033	-0.008	3405.000
1.959	-0.052	-21.598	0.135	-0.029	0.014	3667.000
3.208	-0.558	-21.335	0.115	-0.057	0.004	3704.000
-0.361	-0.950	-22.669	0.123	0.066	0.009	3873.000
4.102	-0.168	-20.384	0.109	-0.052	0.018	3963.000
-0.128	-0.169	-20.813	0.123	-0.053	-0.019	3994.000
1.413	-0.364	-17.634	0.110	-0.033	0.024	4000.000
1.700	-0.134	-18.560	0.116	-0.086	-0.011	3988.000
-2.425	0.280	-18.037	0.102	-0.096	-0.008	3988.000
2.670	0.862	-18.486	0.098	-0.132	0.006	3832.000
-3.542	-0.167	-19.419	0.132	-0.097	-0.019	3765.000
-1.099	-0.235	-16.765	0.102	-0.115	-0.001	3529.000
-2.139	-0.001	-18.598	0.114	-0.101	-0.022	3503.000
-2.324	-0.188	-18.112	0.118	-0.112	-0.002	3503.000
-1.817	-0.267	-17.664	0.116	-0.132	-0.021	2899.000
-1.773	-0.201	-17.932	0.111	-0.120	-0.005	2684.000
-1.746	-0.136	-18.381	0.114	-0.149	-0.006	2343.000
-2.239	-0.223	-19.138	0.122	-0.159	-0.012	1962.000
-2.508	-0.176	-17.969	0.123	-0.155	-0.006	1618.000
-2.139	-0.594	-17.497	0.116	-0.154	-0.016	1354.000
-2.353	-0.442	-17.644	0.127	-0.166	-0.019	1145.000
-2.486	-0.348	-18.571	0.120	-0.183	-0.004	815.000
-3.051	-0.641	-20.024	0.129	-0.193	-0.018	600.000
-2.469	-0.361	-19.923	0.126	-0.205	-0.003	443.000
-1.728	-0.268	-19.843	0.124	-0.207	-0.029	292.000
-4.513	0.512	-19.663	0.134	-0.187	-0.016	160.000
-3.767	-0.282	-19.979	0.143	-0.259	-0.021	76.000
-2.425	0.782	-20.517	0.110	-0.174	-0.015	15.000
-0.438	-0.479	-20.155	0.135	-0.173	-0.010	15.000
-1.995	-0.486	-20.173	0.136	-0.204	-0.010	0.000
-1.696	-0.010	-20.386	0.125	-0.200	-0.010	0.000
-1.332	-0.250	-19.871	0.131	-0.191	-0.007	0.000
-1.559	-0.142	-20.046	0.127	-0.192	-0.007	2.000
2.118	0.163	-20.838	0.125	-0.132	0.003	46.000
1.308	0.338	-20.701	0.112	-0.125	0.023	113.000
3.712	-1.002	-21.666	0.123	-0.155	0.025	237.000
2.706	-0.000	-21.005	0.112	-0.078	0.003	325.000
3.478	0.118	-20.300	0.132	-0.136	0.011	469.000
2.226	0.778	-20.714	0.134	-0.095	0.003	717.000
2.675	0.496	-20.633	0.124	-0.102	0.005	939.000
2.086	0.045	-21.144	0.132	-0.097	0.004	1178.000
2.755	-0.175	-21.574	0.131	-0.087	0.016	1545.000
3.022	0.119	-22.078	0.135	-0.068	0.011	1834.000
3.467	-0.170	-22.618	0.138	-0.059	0.014	2071.000
2.207	0.145	-23.049	0.143	-0.061	0.014	2539.000
3.077	-0.123	-21.879	0.129	-0.051	0.013	2758.000
2.631	-0.084	-21.549	0.123	-0.052	0.008	2946.000
2.129	-0.077	-21.881	0.133	-0.053	0.012	2946.000
2.713	-0.553	-21.861	0.125	-0.040	0.005	3489.000
2.433	0.146	-21.036	0.135	-0.050	0.017	3623.000
1.734	0.495	-21.819	0.139	-0.012	0.014	3715.000
5.532	-0.449	-20.267	0.128	-0.118	0.014	3715.000
2.192	0.594	-21.372	0.136	0.066	0.010	3941.000
1.298	-0.411	-21.200	0.125	-0.073	0.023	3979.000
0.008	-0.216	-21.011	0.126	-0.064	-0.008	3999.000
-3.559	-0.827	-19.488	0.141	-0.131	-0.011	3966.000
-2.372	-1.279	-18.902	0.128	-0.102	0.005	3911.000
-4.692	-1.058	-18.949	0.154	-0.109	-0.024	3831.000
-0.260	-1.148	-18.362	0.103	-0.133	-0.013	3680.000
-3.081	-0.972	-18.698	0.134	-0.111	0.003	3506.000
-1.805	-0.488	-18.656	0.117	-0.122	-0.027	3324.000
-1.954	-0.487	-18.454	0.123	-0.132	-0.006	3134.000
-1.920	-0.172	-19.963	0.128	-0.132	-0.016	2847.000
-1.760	-0.556	-18.417	0.118	-0.137	-0.013	2686.000
-2.014	-0.453	-18.186	0.116	-0.137	-0.018	2228.000
-0.838	-0.190	-17.970	0.109	-0.141	-0.010	1959.000
-1.198	0.457	-18.174	0.108	-0.136	-0.006	1633.000
-1.312	-0.416	-17.831	0.123	-0.156	-0.011	1633.000
-1.137	-0.307	-17.605	0.107	-0.158	-0.022	1018.000
-2.053	-0.057	-19.047	0.108	-0.181	-0.013	815.000
-0.303	0.064	-17.999	0.111	-0.182	-0.002	584.000
-1.974	-0.284	-18.865	0.124	-0.178	-0.007	411.000
-0.694	-0.573	-19.124	0.115	-0.201	-0.017	274.000
0.029	-0.495	-19.975	0.128	-0.237	0.008	131.000
-0.152	-0.158	-19.154	0.120	-0.206	-0.017	57.000
-1.675	-1.228	-19.108	0.148	-0.214	-0.019	57.000
-2.899	0.186	-19.933	0.126	-0.230	-0.006	0.000
1.247	0.302	-20.853	0.121	-0.174	-0.002	11.000
3.854	0.983	-21.436	0.114	-0.129	0.014	52.000
2.976	-1.130	-21.406	0.149	-0.104	0.007	119.000
3.670	1.168	-20.606	0.130	-0.171	-0.009	203.000
1.366	0.610	-21.877	0.148	-0.131	-0.003	390.000
2.138	0.773	-21.181	0.124	-0.113	0.012	556.000
1.742	-0.196	-22.092	0.125	-0.114	0.013	773.000
3.470	-0.190	-21.942	0.125	-0.122	0.016	1052.000
2.274	0.119	-22.813	0.137	-0.098	0.014	1256.000
2.483	-0.254	-21.297	0.131	-0.094	0.009	1256.000
2.149	-0.127	-21.703	0.135	-0.090	0.013	1957.000
1.792	0.025	-22.848	0.141	-0.084	0.007	2276.000
2.215	-0.226	-23.119	0.135	-0.051	0.006	2535.000
2.384	0.039	-22.479	0.130	-0.061	0.002	2862.000
2.622	-0.287	-21.485	0.131	-0.040	0.002	3045.000
2.032	-0.068	-20.583	0.128	-0.025	0.001	3350.000
2.728	-0.467	-20.305	0.126	-0.057	0.015	3548.000
2.198	-0.026	-19.941	0.125	-0.026	0.026	3640.000
2.271	-1.000	-19.314	0.114	-0.062	-0.005	3811.000
2.066	0.766	-19.069	0.123	-0.016	-0.002	3870.000
1.849	-0.247	-20.431	0.132	-0.040	0.025	3963.000
3.087	-0.322	-19.948	0.121	-0.011	0.002	3999.000
0.560	-0.374	-19.572	0.112	-0.054	-0.002	3999.000
-3.552	-0.979	-19.054	0.134	-0.148	-0.011	3963.000
-2.103	-1.705	-18.132	0.130	-0.137	-0.003	3940.000
-3.726	-1.773	-19.585	0.140	-0.118	-0.013	3804.000
-1.707	-0.610	-18.912	0.115	-0.124	-0.015	3664.000
-2.179	-0.631	-18.732	0.135	-0.132	-0.003	3564.000
-2.244	-0.577	-18.914	0.117	-0.123	-0.023	3564.000
-2.356	-0.530	-18.943	0.125	-0.134	-0.008	3113.000
-2.059	-0.316	-18.701	0.120	-0.129	-0.012	2848.000
-2.229	-0.331	-18.620	0.120	-0.135	-0.013	2798.000
-1.825	-0.268	-18.294	0.114	-0.145	-0.016	2798.000
-0.606	-0.592	-17.581	0.115	-0.128	-0.006	1949.000
-1.178	-0.118	-17.881	0.112	-0.152	-0.013	1697.000
-1.023	0.038	-17.728	0.121	-0.141	-0.003	1299.000
-0.926	-0.290	-17.281	0.106	-0.149	-0.024	1016.000
-1.427	-0.312	-18.019	0.109	-0.154	-0.005	733.000
-1.665	-0.015	-19.313	0.122	-0.178	-0.014	510.000
-1.394	-0.141	-19.543	0.130	-0.201	-0.005	399.000
-0.404	-0.775	-19.857	0.115	-0.197	-0.015	223.000
1.600	-0.129	-18.156	0.133	-0.266	-0.002	153.000
-1.843	0.319	-19.906	0.137	-0.156	-0.036	76.000
-1.210	-0.898	-20.226	0.144	-0.232	0.002	8.000
-2.953	0.023	-20.993	0.128	-0.226	-0.017	0.000
0.628	0.391	-20.506	0.121	-0.154	0.014	37.000
3.703	0.890	-21.413	0.099	-0.116	0.017	73.000
1.480	0.738	-21.536	0.149	-0.120	-0.004	182.000
3.743	0.321	-22.228	0.122	-0.080	0.037	295.000
1.370	0.602	-21.417	0.147	-0.123	-0.027	465.000
3.029	-0.303	-21.569	0.124	-0.142	0.025	667.000
1.341	-0.097	-20.884	0.119	-0.096	0.016	848.000
2.768	-0.453	-21.227	0.120	-0.115	0.008	1088.000
2.577	0.289	-21.169	0.129	-0.094	0.010	1339.000
2.403	-0.103	-21.445	0.135	-0.081	0.007	1584.000
2.130	-0.388	-22.325	0.135	-0.079	0.015	1584.000
2.820	-0.461	-22.945	0.140	-0.058	0.002	2412.000
2.550	-0.289	-22.799	0.138	-0.066	0.012	2661.000
2.857	-0.494	-22.547	0.137	-0.057	0.010	2925.000
2.295	-0.201	-20.996	0.135	-0.034	0.009	3153.000
1.977	0.237	-20.628	0.128	-0.024	-0.008	3153.000
2.852	0.064	-21.531	0.141	-0.047	0.034	3604.000
1.777	-0.358	-20.438	0.121	-0.033	0.008	3685.000
-0.422	-1.057	-20.680	0.112	0.045	-0.000	3844.000
6.088	-0.518	-18.819	0.095	-0.091	0.014	3927.000
2.742	0.083	-20.057	0.131	0.011	0.030	3947.000
1.193	-0.419	-19.122	0.112	-0.055	-0.004	4000.000
0.492	-0.189	-18.803	0.110	-0.045	0.003	4000.000
-3.716	-0.875	-18.954	0.135	-0.127	-0.018	3967.000
-2.455	-1.183	-18.166	0.123	-0.087	0.013	3912.000
-4.749	-0.748	-19.130	0.159	-0.105	-0.027	3866.000
-0.050	-1.462	-18.295	0.109	-0.142	-0.007	3708.000
-2.597	-0.857	-17.874	0.130	-0.112	0.001	3559.000
-2.094	-0.557	-19.479	0.115	-0.127	-0.029	3325.000
-2.239	-0.696	-19.281	0.124	-0.136	-0.003	3114.000
-1.971	-0.377	-20.049	0.124	-0.124	-0.026	2869.000
-1.933	-0.332	-19.436	0.126	-0.152	-0.007	2542.000
-2.371	-0.308	-19.147	0.123	-0.130	-0.016	2197.000
-0.612	-0.401	-18.874	0.119	-0.141	-0.014	1986.000
-0.956	0.113	-18.547	0.115	-0.145	-0.007	1613.000
-1.390	-0.382	-17.890	0.118	-0.153	-0.008	1244.000
-1.272	-0.392	-17.774	0.107	-0.151	-0.017	1244.000
-1.997	-0.024	-17.960	0.112	-0.172	-0.011	795.000
-0.007	-0.061	-18.229	0.114	-0.182	-0.001	563.000
-1.867	-0.571	-18.983	0.125	-0.171	-0.017	373.000
-0.853	-0.326	-19.096	0.116	-0.201	-0.014	235.000
-0.380	-0.900	-18.431	0.121	-0.203	-0.000	128.000
0.235	0.058	-18.174	0.113	-0.200	-0.014	100.000
-1.704	-0.906	-19.331	0.148	-0.209	-0.016	13.000
-2.488	0.345	-19.550	0.134	-0.220	0.000	0.000
0.552	0.193	-19.850	0.117	-0.140	0.006	23.000
4.059	1.020	-19.838	0.101	-0.116	0.018	101.000
-0.357	0.781	-21.299	0.158	-0.083	0.005	183.000
4.738	0.243	-21.384	0.124	-0.109	0.032	262.000
0.874	0.438	-22.767	0.150	-0.122	-0.009	446.000
3.298	-0.348	-21.393	0.125	-0.149	0.032	635.000
1.011	0.276	-21.875	0.138	-0.095	-0.008	903.000
3.174	-0.230	-21.651	0.125	-0.122	0.025	1162.000
2.317	0.086	-21.771	0.136	-0.090	0.010	1365.000
2.585	-0.528	-22.077	0.135	-0.078	0.011	1752.000
1.954	-0.291	-21.730	0.137	-0.073	0.009	1829.000
2.736	-0.382	-22.512	0.138	-0.058	0.015	2425.000
2.151	0.039	-22.289	0.137	-0.059	0.009	2730.000
2.402	-0.356	-21.309	0.133	-0.054	0.011	3001.000
2.223	-0.461	-20.690	0.126	-0.039	0.008	3220.000
1.617	-0.182	-21.226	0.128	-0.023	0.016	3220.000
2.803	-0.229	-21.131	0.139	-0.050	0.009	3220.000
1.041	-0.005	-20.802	0.127	-0.029	0.016	3679.000
1.496	-1.500	-21.048	0.108	-0.001	0.011	3679.000
5.513	-0.670	-19.658	0.094	-0.067	0.004	3937.000
3.126	0.378	-21.018	0.138	-0.003	0.030	3983.000
1.701	-0.285	-20.445	0.127	-0.053	0.002	4000.000
0.419	-0.196	-20.801	0.126	-0.052	-0.001	3998.000
-3.239	-1.365	-20.764	0.137	-0.155	-0.014	3998.000
-2.462	-1.603	-19.071	0.150	-0.159	-0.002	3998.000
-2.724	-1.877	-20.266	0.136	-0.130	-0.012	3791.000
-2.687	-0.061	-19.203	0.127	-0.111	-0.028	3682.000
-2.164	-0.566	-19.240	0.136	-0.137	0.007	3505.000
-2.469	-0.354	-18.752	0.116	-0.119	-0.029	3394.000
-2.476	-0.417	-18.837	0.125	-0.128	-0.007	3095.000
-1.925	-0.528	-18.196	0.118	-0.133	-0.013	2883.000
-2.328	-0.129	-18.270	0.121	-0.135	-0.009	2639.000
-2.205	-0.345	-18.248	0.108	-0.149	-0.008	2415.000
-0.498	-0.039	-17.968	0.104	-0.138	-0.010	2415.000
-1.576	-0.303	-16.938	0.100	-0.130	-0.016	1535.000
-1.510	-0.044	-16.780	0.112	-0.148	-0.001	1463.000
-1.355	-0.260	-16.571	0.106	-0.144	-0.012	1463.000
-1.499	-0.539	-16.680	0.101	-0.165	-0.015	800.000
-2.015	0.065	-17.537	0.110	-0.141	-0.012	573.000
-1.261	-0.085	-18.810	0.127	-0.192	-0.000	416.000
-1.097	-0.490	-19.711	0.123	-0.188	-0.010	233.000
1.554	-0.087	-17.580	0.123	-0.260	0.005	141.000
-2.699	0.454	-19.427	0.147	-0.146	-0.040	65.000
-1.267	-0.661	-20.436	0.146	-0.229	0.005	34.000
-2.646	-0.118	-21.072	0.128	-0.223	-0.019	0.000
0.696	0.088	-21.155	0.136	-0.166	0.006	20.000
2.072	0.197	-22.250	0.134	-0.177	0.002	68.000
3.450	1.834	-21.402	0.126	-0.136	0.016	166.000
3.347	-0.358	-23.013	0.131	-0.132	0.020	288.000
2.921	-0.458	-22.274	0.129	-0.078	0.012	416.000
3.580	-0.551	-20.661	0.118	-0.122	-0.002	578.000
2.776	-0.055	-21.866	0.133	-0.101	0.020	703.000
2.904	-0.154	-22.416	0.132	-0.106	0.009	703.000
2.205	-0.042	-21.651	0.135	-0.091	0.016	1293.000
2.634	-0.180	-22.565	0.130	-0.086	0.007	1538.000
2.662	-0.004	-21.426	0.127	-0.080	0.009	1967.000
2.103	-0.275	-21.921	0.130	-0.062	0.017	2296.000
2.422	0.059	-22.222	0.136	-0.069	0.010	2296.000
2.393	-0.009	-22.123	0.130	-0.053	0.008	2900.000
1.540	-0.062	-21.295	0.123	-0.056	0.010	3149.000
2.000	-0.017	-21.484	0.133	-0.055	0.007	3263.000
2.327	0.134	-20.715	0.121	-0.036	0.005	3572.000
2.612	0.026	-20.597	0.127	-0.056	0.026	3658.000
-1.013	-0.253	-20.577	0.128	-0.007	-0.015	3823.000
3.877	-1.586	-19.804	0.102	-0.072	0.009	3924.000
0.895	0.697	-20.098	0.130	-0.041	0.004	3983.000
0.937	-0.150	-18.883	0.112	-0.044	0.030	4000.000
1.704	-0.456	-20.025	0.120	-0.036	-0.014	4000.000
0.175	-0.311	-20.040	0.130	-0.057	0.009	3991.000
1.162	-0.056	-19.205	0.120	-0.113	-0.009	3957.000
-0.804	0.179	-19.800	0.122	-0.126	0.002	3896.000
-0.644	-0.348	-18.856	0.117	-0.150	-0.010	3782.000
-1.596	0.778	-19.867	0.117	-0.092	-0.009	3667.000
-1.552	-0.385	-19.379	0.126	-0.142	-0.014	3443.000
-1.769	-0.238	-19.054	0.120	-0.130	-0.009	3241.000
-2.130	-0.234	-19.253	0.113	-0.122	-0.017	2994.000
-2.038	-0.358	-18.518	0.116	-0.138	-0.007	2766.000
-1.960	-0.059	-18.215	0.114	-0.141	-0.011	2485.000
-1.489	-0.077	-18.037	0.115	-0.154	-0.011	2144.000
-1.727	0.217	-17.626	0.102	-0.147	-0.009	1747.000
-1.417	0.226	-17.712	0.098	-0.150	-0.009	1696.000
-1.309	-0.495	-17.738	0.106	-0.159	-0.013	1152.000
-1.840	0.489	-17.466	0.102	-0.159	-0.012	876.000
-1.917	-0.015	-18.612	0.111	-0.183	-0.006	808.000
-2.607	0.017	-18.988	0.114	-0.165	-0.017	486.000
-2.042	-0.637	-18.620	0.114	-0.173	-0.015	307.000
-2.807	-0.985	-19.345	0.115	-0.192	-0.020	252.000
-2.081	0.793	-18.701	0.129	-0.250	-0.050	98.000
1.072	0.366	-19.427	0.109	-0.182	0.021	34.000
-3.007	-0.325	-19.619	0.134	-0.210	-0.028	1.000
-1.720	-0.397	-20.177	0.131	-0.211	0.001	0.000
-0.573	0.496	-21.404	0.124	-0.201	-0.005	7.000
3.058	0.544	-22.494	0.124	-0.123	0.005	48.000
0.788	0.106	-23.079	0.104	-0.071	-0.011	127.000
3.271	-1.200	-22.503	0.122	-0.102	0.050	255.000
0.597	-1.454	-21.269	0.131	-0.104	-0.012	359.000
3.479	-0.165	-20.689	0.120	-0.153	0.041	498.000
1.416	0.278	-20.826	0.137	-0.120	-0.010	744.000
2.481	-0.532	-20.146	0.113	-0.102	0.019	995.000
2.278	-0.097	-20.615	0.134	-0.096	0.005	1245.000
2.790	-0.258	-20.678	0.127	-0.088	0.012	1510.000
2.435	0.010	-21.477	0.136	-0.078	0.021	1913.000
2.265	-0.263	-21.792	0.137	-0.070	0.003	2271.000
2.446	-0.143	-22.281	0.142	-0.072	0.014	2444.000
2.378	-0.405	-21.680	0.131	-0.058	0.011	2845.000
3.272	0.107	-20.678	0.129	-0.039	0.011	3100.000
2.311	-0.202	-20.914	0.133	-0.046	0.002	3100.000
2.010	-0.544	-21.452	0.128	-0.022	0.029	3100.000
1.962	-0.431	-20.825	0.123	-0.029	-0.003	3600.000
-0.049	-0.376	-21.127	0.139	-0.030	0.009	3600.000
6.108	-0.391	-20.669	0.116	-0.120	0.026	3895.000
1.229	0.112	-22.442	0.152	-0.027	0.018	3972.000
3.498	-0.160	-21.780	0.114	-0.021	-0.017	3996.000
1.137	0.131	-20.437	0.126	-0.027	0.014	4000.000
-0.719	-0.471	-20.851	0.135	-0.088	-0.002	3998.000
-3.570	-0.850	-20.221	0.130	-0.055	-0.014	3958.000
-2.833	-0.390	-20.190	0.132	-0.095	-0.032	3893.000
-2.506	-0.624	-20.186	0.115	-0.070	-0.010	3770.000
-0.770	0.327	-18.574	0.107	-0.103	-0.030	3606.000
-2.800	-0.835	-18.684	0.126	-0.119	0.004	3445.000
-2.032	-0.608	-18.349	0.116	-0.119	-0.029	3445.000
-1.904	-0.181	-18.145	0.116	-0.119	0.002	2949.000
-1.936	-0.404	-17.816	0.112	-0.122	-0.028	2680.000
-1.328	-0.091	-18.185	0.112	-0.127	-0.003	2421.000
-1.580	-0.316	-17.745	0.110	-0.127	-0.015	2187.000
-0.534	-0.165	-17.089	0.102	-0.126	-0.004	2187.000
-1.253	-0.139	-16.556	0.108	-0.127	-0.014	1554.000
-1.222	-0.276	-15.882	0.105	-0.140	-0.004	1378.000
-1.491	-0.341	-16.384	0.090	-0.153	-0.018	866.000
-1.812	-0.073	-16.206	0.102	-0.153	-0.007	726.000
-0.733	-0.050	-15.528	0.100	-0.162	-0.005	513.000
-1.082	-0.643	-16.511	0.113	-0.171	-0.003	297.000
-2.715	-0.060	-17.157	0.113	-0.172	-0.016	192.000
-0.451	0.299	-17.550	0.105	-0.180	0.015	166.000
-2.254	0.059	-17.378	0.112	-0.094	-0.020	34.000
-1.499	-0.296	-18.467	0.112	-0.212	-0.002	4.000
-1.668	0.143	-19.009	0.117	-0.189	-0.016	4.000
-1.263	-0.252	-18.594	0.125	-0.183	-0.004	0.000
-0.478	-0.245	-20.173	0.126	-0.188	-0.012	0.000
2.362	0.866	-19.946	0.106	-0.143	0.008	0.000
2.930	-0.181	-20.592	0.129	-0.075	-0.009	67.000
5.731	0.226	-20.401	0.131	-0.201	0.011	152.000
-1.305	0.035	-21.821	0.143	-0.098	-0.008	152.000
2.893	0.434	-20.246	0.116	-0.122	0.032	474.000
1.478	-0.406	-22.116	0.128	-0.111	-0.000	672.000
3.420	0.224	-22.450	0.125	-0.134	0.019	908.000
2.462	-0.048	-23.625	0.139	-0.097	0.013	908.000
3.419	-0.040	-23.023	0.140	-0.096	0.006	1412.000
2.462	-0.224	-23.455	0.146	-0.090	0.017	1607.000
1.776	-0.197	-23.542	0.140	-0.108	0.009	1607.000
2.297	0.233	-24.013	0.145	-0.065	0.004	2416.000
2.410	0.014	-23.477	0.142	-0.069	0.019	2631.000
2.166	-0.357	-21.964	0.129	-0.055	0.006	2975.000
2.280	-0.209	-21.359	0.135	-0.039	0.013	3230.000
3.213	-0.345	-20.103	0.125	-0.057	0.014	3340.000
1.063	-0.218	-19.453	0.109	-0.031	0.002	3614.000
2.376	-0.308	-20.389	0.113	-0.050	0.013	3772.000
-0.877	0.727	-18.595	0.135	-0.019	-0.004	3804.000
1.470	-0.317	-20.552	0.125	0.012	0.027	3804.000
2.638	0.311	-19.633	0.115	-0.023	-0.013	3990.000
2.830	-0.209	-19.231	0.110	-0.024	0.013	4000.000
-1.214	-0.311	-18.743	0.114	-0.088	-0.001	3978.000
-2.289	-0.808	-19.255	0.109	-0.133	-0.010	3924.000
-3.383	-1.096	-19.916	0.111	-0.105	-0.030	3833.000
-1.585	-0.891	-17.254	0.119	-0.150	-0.004	3729.000
-3.284	-0.659	-19.304	0.131	-0.119	-0.023	3729.000
-1.477	-0.080	-17.767	0.106	-0.120	0.002	3379.000
-2.074	-0.478	-17.901	0.113	-0.127	-0.016	3166.000
-2.612	-0.597	-19.321	0.125	-0.142	-0.005	2948.000
-2.848	-0.152	-20.137	0.128	-0.151	-0.024	2670.000
-2.790	-0.355	-20.312	0.134	-0.149	0.002	2670.000
-1.560	-0.496	-18.464	0.127	-0.145	-0.021	2670.000
-1.824	-0.648	-18.806	0.130	-0.154	-0.010	1798.000
-1.583	-0.334	-19.395	0.136	-0.156	-0.020	1347.000
-1.127	-0.394	-18.227	0.122	-0.145	0.001	1126.000
-1.500	-0.351	-17.853	0.115	-0.157	-0.023	833.000
-1.143	-0.486	-17.996	0.117	-0.162	-0.009	833.000
-1.707	-0.200	-18.015	0.122	-0.183	-0.018	833.000
-1.628	-0.327	-17.869	0.118	-0.182	-0.007	266.000
-0.260	-0.587	-18.207	0.125	-0.229	0.004	266.000
-4.854	-0.090	-18.264	0.137	-0.200	-0.017	72.000
-1.814	0.035	-19.565	0.111	-0.228	-0.025	19.000
-0.677	0.038	-19.749	0.121	-0.189	-0.001	0.000
-1.623	-0.735	-20.274	0.133	-0.198	-0.018	0.000
0.934	0.134	-20.422	0.124	-0.150	0.001	3.000
0.466	-0.199	-20.578	0.138	-0.162	0.004	60.000
2.949	-0.536	-20.779	0.114	-0.166	0.000	175.000
0.980	-0.439	-20.260	0.108	-0.056	0.005	175.000
4.624	0.315	-21.792	0.110	-0.130	-0.011	175.000
1.741	0.715	-22.772	0.146	-0.086	0.024	642.000
3.601	-0.509	-21.915	0.128	-0.109	0.016	823.000
2.504	0.162	-22.058	0.142	-0.103	0.021	1099.000
2.891	-0.337	-22.879	0.132	-0.113	0.003	1269.000
2.782	-0.036	-23.032	0.141	-0.098	0.017	1269.000
2.956	-0.291	-22.876	0.145	-0.097	0.013	2018.000
2.526	0.116	-23.386	0.140	-0.096	0.009	2214.000
2.443	-0.237	-22.147	0.128	-0.068	-0.001	2650.000
2.038	-0.050	-22.607	0.131	-0.062	0.014	2883.000
2.173	-0.466	-21.097	0.123	-0.070	0.008	3082.000
2.180	-0.176	-22.418	0.124	-0.055	-0.005	3383.000
2.469	-0.074	-20.463	0.123	-0.053	0.034	3546.000
1.544	-0.871	-19.634	0.117	-0.036	0.004	3599.000
4.008	-0.383	-19.089	0.116	-0.057	0.027	3829.000
-0.101	1.052	-20.250	0.150	-0.018	-0.006	3859.000
1.474	-0.486	-18.839	0.108	-0.077	0.034	3859.000
1.062	-0.087	-19.767	0.113	-0.021	-0.019	3998.000
2.273	-0.328	-18.727	0.116	-0.040	0.009	3993.000
-1.511	-0.251	-19.379	0.116	-0.114	-0.013	3968.000
-0.666	1.121	-18.545	0.094	-0.078	-0.018	3948.000
-2.166	0.364	-17.704	0.132	-0.141	-0.024	3800.000
-2.232	-0.219	-18.407	0.130	-0.128	-0.014	3660.000
-1.998	0.227	-18.615	0.106	-0.098	-0.008	3660.000
-2.069	-0.322	-18.943	0.122	-0.125	-0.015	3274.000
-2.114	-0.349	-18.042	0.128	-0.132	-0.014	3036.000
-2.342	-0.195	-18.195	0.118	-0.127	-0.002	2825.000
-2.485	-0.393	-18.625	0.118	-0.142	-0.019	2494.000
-2.293	-0.408	-19.801	0.125	-0.158	-0.011	2416.000
-2.696	-0.735	-18.736	0.131	-0.179	-0.018	2416.000
-1.757	-0.512	-18.316	0.125	-0.165	-0.008	1602.000
-1.904	-0.214	-17.851	0.120	-0.167	0.001	1208.000
-2.362	-0.349	-19.101	0.123	-0.172	-0.012	926.000
-2.227	-0.027	-18.190	0.119	-0.183	-0.015	875.000
-1.768	-0.685	-18.210	0.116	-0.184	-0.014	875.000
-1.866	0.006	-18.447	0.121	-0.197	-0.007	370.000
-1.357	-0.949	-19.603	0.123	-0.197	-0.014	267.000
-5.177	-0.664	-20.211	0.132	-0.079	-0.012	267.000
-2.394	-0.163	-18.505	0.118	-0.272	-0.024	43.000
-2.029	-0.275	-19.949	0.131	-0.156	-0.005	11.000
-0.767	-0.513	-20.551	0.138	-0.193	-0.015	0.000
0.429	-0.022	-22.214	0.142	-0.161	-0.002	0.000
2.073	0.145	-21.682	0.134	-0.180	0.007	85.000
4.427	1.857	-21.337	0.131	-0.172	0.014	162.000
1.157	-0.266	-23.155	0.134	-0.104	0.014	239.000
4.291	-0.370	-20.725	0.110	-0.092	0.009	426.000
3.322	-0.457	-22.149	0.122	-0.125	0.009	630.000
3.144	0.519	-22.419	0.145	-0.110	-0.004	837.000
2.184	0.274	-23.090	0.140	-0.105	0.015	1074.000
2.565	-0.061	-22.130	0.136	-0.109	0.009	1381.000
2.268	0.052	-23.166	0.141	-0.085	0.011	1568.000
3.194	-0.193	-22.391	0.132	-0.084	0.011	1995.000
2.479	0.353	-21.631	0.130	-0.068	0.005	2342.000
2.618	-0.033	-22.350	0.136	-0.064	0.009	2342.000
3.098	-0.091	-23.196	0.136	-0.048	0.016	2342.000
1.974	-0.181	-22.804	0.129	-0.049	0.013	3044.000
3.056	-0.122	-23.177	0.143	-0.057	0.021	3044.000
3.005	0.268	-23.384	0.145	-0.036	0.007	3560.000
2.786	0.313	-21.736	0.138	-0.063	0.016	3679.000
-1.039	0.278	-22.229	0.144	-0.012	-0.008	3833.000
3.591	-0.848	-21.130	0.116	-0.076	0.011	3911.000
1.146	0.621	-19.750	0.130	-0.053	0.016	3979.000
1.033	-0.000	-19.737	0.110	-0.042	0.024	3996.000
1.431	-0.227	-18.387	0.112	-0.025	-0.005	4000.000
0.019	-0.510	-19.040	0.125	-0.042	-0.011	3987.000
0.598	0.159	-18.175	0.098	-0.110	-0.014	3954.000
-4.360	1.000	-18.778	0.094	-0.014	-0.012	3954.000
0.744	0.010	-17.341	0.097	-0.126	-0.013	3718.000
-2.027	1.235	-18.585	0.102	-0.075	-0.005	3608.000
-1.617	-0.729	-17.836	0.115	-0.125	-0.025	3608.000
-1.784	0.121	-17.588	0.109	-0.117	-0.004	3105.000
-1.647	-0.229	-16.516	0.109	-0.114	-0.016	2967.000
-2.079	-0.399	-17.359	0.112	-0.130	-0.005	2575.000
-2.161	0.036	-17.441	0.112	-0.137	-0.013	2254.000
-2.576	-0.168	-18.200	0.122	-0.158	-0.015	1929.000
-2.940	-0.301	-19.843	0.115	-0.180	-0.016	1592.000
-1.922	-0.010	-19.168	0.125	-0.178	-0.007	1318.000
-2.162	-0.506	-19.099	0.129	-0.184	-0.012	1009.000
-2.472	-0.203	-18.614	0.119	-0.179	-0.027	948.000
-1.634	0.171	-19.612	0.140	-0.227	-0.000	575.000
-2.449	0.106	-20.647	0.136	-0.203	-0.010	450.000
-2.825	-0.293	-20.352	0.137	-0.200	-0.005	246.000
-1.369	-0.818	-21.245	0.122	-0.230	-0.012	187.000
0.067	-0.393	-20.603	0.114	-0.250	-0.020	187.000
-1.188	0.191	-20.254	0.116	-0.187	0.001	12.000
-1.120	-0.511	-20.371	0.136	-0.187	-0.021	0.000
-0.956	-0.034	-20.605	0.140	-0.190	-0.006	1.000
2.058	0.848	-20.606	0.106	-0.119	0.004	29.000
1.471	-0.974	-20.647	0.140	-0.099	0.023	100.000
-1.678	0.668	-21.059	0.126	-0.038	-0.002	147.000
4.215	-0.206	-20.348	0.121	-0.207	0.012	147.000
2.150	0.694	-21.278	0.132	-0.101	-0.009	499.000
3.707	-0.058	-20.980	0.125	-0.124	0.019	711.000
1.519	-0.139	-20.933	0.117	-0.080	0.014	902.000
3.217	-0.422	-20.278	0.121	-0.094	0.013	1207.000
1.612	-0.109	-19.927	0.125	-0.080	0.011	1369.000
2.624	-0.176	-20.484	0.118	-0.097	0.014	1596.000
1.636	0.086	-21.555	0.133	-0.092	0.005	2134.000
1.689	-0.303	-21.702	0.126	-0.073	0.006	2487.000
2.028	-0.218	-22.417	0.131	-0.069	0.006	2681.000
1.606	-0.020	-21.545	0.130	-0.064	0.003	3029.000
2.433	-0.280	-21.656	0.130	-0.052	0.008	3194.000
0.770	-0.029	-21.252	0.131	-0.029	0.004	3472.000
3.126	0.061	-20.978	0.126	-0.040	0.012	3472.000
2.103	-0.327	-20.895	0.127	-0.015	0.013	3472.000
2.734	-0.992	-22.997	0.124	-0.081	0.010	3867.000
0.368	-0.530	-18.613	0.121	-0.065	0.019	3909.000
1.849	-0.526	-19.671	0.117	-0.010	0.020	3909.000
2.771	-0.292	-19.497	0.124	-0.020	-0.015	4000.000
0.198	0.083	-19.801	0.127	-0.058	0.018	3997.000
-3.261	-1.014	-19.168	0.138	-0.142	-0.016	3965.000
-3.387	-1.120	-18.423	0.165	-0.158	-0.020	3898.000
-0.321	-1.433	-19.279	0.122	-0.158	0.006	3839.000
-3.974	-0.275	-19.762	0.135	-0.090	-0.024	3664.000
-2.134	-0.628	-18.899	0.140	-0.148	-0.009	3492.000
-2.349	-0.422	-18.024	0.115	-0.114	-0.012	3306.000
-2.087	-0.306	-19.027	0.123	-0.117	-0.012	3246.000
-1.811	-0.906	-18.246	0.117	-0.131	-0.021	3246.000
-2.126	-0.341	-17.988	0.120	-0.117	-0.015	2592.000
-1.168	-0.423	-17.332	0.113	-0.142	-0.007	2303.000
-1.802	-0.445	-18.383	0.120	-0.136	-0.017	1863.000
-0.488	-0.111	-18.646	0.109	-0.143	-0.007	1586.000
-1.503	-0.726	-19.758	0.129	-0.171	-0.010	1247.000
-1.304	-0.265	-18.951	0.118	-0.163	-0.004	1070.000
-1.562	-0.218	-18.665	0.115	-0.180	-0.024	1070.000
-2.552	-0.089	-18.556	0.117	-0.139	-0.017	569.000
-1.061	-0.292	-19.160	0.124	-0.198	-0.006	367.000
-2.057	0.177	-19.216	0.134	-0.166	-0.003	263.000
-1.298	0.463	-17.765	0.127	-0.236	-0.026	190.000
-1.773	-0.153	-19.592	0.142	-0.150	-0.033	190.000
-1.274	-0.041	-19.584	0.139	-0.214	0.013	21.000
-2.611	0.062	-19.683	0.121	-0.215	-0.019	0.000
-0.321	-0.345	-20.432	0.130	-0.169	0.007	3.000
2.156	0.512	-21.810	0.120	-0.133	0.001	33.000
1.075	-0.030	-21.909	0.122	-0.173	-0.001	127.000
3.397	0.924	-19.821	0.125	-0.144	-0.011	219.000
4.343	0.056	-20.635	0.112	-0.123	0.009	245.000
1.532	-0.163	-21.655	0.144	-0.097	0.035	505.000
3.653	-0.473	-21.416	0.121	-0.116	0.003	684.000
2.346	0.292	-21.189	0.130	-0.090	0.002	790.000
2.479	0.059	-22.276	0.132	-0.115	0.006	1156.000
2.337	0.012	-21.153	0.130	-0.079	0.013	1480.000
2.514	-0.345	-19.745	0.117	-0.063	0.004	1572.000
2.690	0.031	-21.695	0.131	-0.061	0.021	1572.000
2.090	-0.082	-22.153	0.132	-0.080	0.011	2453.000
1.969	-0.073	-22.130	0.137	-0.066	0.017	2680.000
2.042	-0.071	-21.568	0.126	-0.063	0.007	2877.000
2.071	-0.217	-21.710	0.124	-0.042	-0.000	3296.000
2.516	-0.025	-21.924	0.139	-0.054	0.030	3484.000
1.951	-0.157	-20.666	0.123	-0.027	-0.016	3617.000
2.438	-0.409	-20.878	0.124	-0.050	0.017	3776.000
-1.886	-0.079	-21.485	0.122	0.101	-0.010	3890.000
4.107	-0.291	-19.844	0.104	-0.079	0.027	3953.000
-0.273	-0.126	-20.047	0.117	-0.048	-0.020	3994.000
1.463	-0.096	-19.739	0.126	-0.046	0.028	4000.000
1.207	-0.258	-19.262	0.120	-0.044	-0.007	3999.000
-1.833	-0.249	-18.108	0.114	-0.105	-0.008	3960.000
-0.861	-0.084	-17.615	0.109	-0.122	0.010	3932.000
-2.222	0.054	-18.274	0.107	-0.098	-0.009	3785.000
-4.699	-1.067	-19.530	0.137	-0.122	-0.024	3695.000
-1.072	-0.017	-18.405	0.119	-0.138	-0.001	3476.000
-2.181	-0.390	-19.204	0.122	-0.120	-0.020	3279.000
-2.454	-0.551	-19.723	0.127	-0.130	-0.009	3054.000
-2.741	-0.435	-20.169	0.140	-0.148	-0.019	2841.000
-2.862	-0.169	-19.831	0.127	-0.146	-0.013	2560.000
-1.936	-0.567	-19.608	0.127	-0.154	-0.010	2306.000
-2.500	-0.728	-18.462	0.131	-0.152	-0.013	2306.000
-1.178	-0.542	-18.258	0.122	-0.138	-0.016	1563.000
-1.432	-0.631	-17.185	0.122	-0.149	-0.008	1476.000
-1.342	-0.591	-17.984	0.122	-0.149	-0.021	1476.000
-0.923	-0.569	-17.885	0.119	-0.171	-0.001	738.000
-2.474	-0.168	-18.028	0.127	-0.151	-0.018	602.000
-1.329	-0.526	-18.647	0.126	-0.180	-0.002	456.000
-2.510	0.378	-18.136	0.135	-0.187	-0.021	220.000
2.828	0.575	-18.870	0.113	-0.251	-0.004	137.000
-4.540	-0.714	-20.036	0.151	-0.202	-0.005	49.000
-0.246	0.169	-19.447	0.112	-0.189	-0.015	7.000
-0.968	-0.390	-19.646	0.128	-0.179	-0.009	0.000
0.760	-0.122	-20.472	0.133	-0.160	-0.003	1.000
0.510	-0.051	-20.882	0.134	-0.161	0.009	66.000
4.956	0.658	-19.432	0.121	-0.199	0.020	160.000
-1.532	-0.041	-21.762	0.115	-0.048	0.009	292.000
5.292	0.642	-21.191	0.113	-0.135	0.015	292.000
1.793	-0.085	-22.443	0.134	-0.097	0.011	292.000
4.157	-0.059	-22.636	0.136	-0.135	0.012	777.000
1.639	0.066	-22.740	0.138	-0.097	0.015	1109.000
3.059	-0.221	-22.298	0.128	-0.118	0.006	1350.000
2.310	0.377	-23.320	0.139	-0.095	0.013	1585.000
3.489	0.015	-22.841	0.145	-0.086	0.009	1792.000
2.556	-0.332	-23.608	0.140	-0.083	0.007	1792.000
2.316	0.034	-23.429	0.137	-0.056	0.008	2688.000
2.100	0.004	-21.838	0.132	-0.055	0.010	2859.000
2.225	0.050	-21.565	0.130	-0.071	0.028	3061.000
2.694	-0.307	-21.114	0.128	-0.059	0.003	3391.000
2.168	0.273	-19.588	0.125	-0.033	0.003	3520.000
1.170	-0.179	-18.215	0.126	-0.042	0.020	3731.000
0.796	-0.048	-18.748	0.122	-0.034	0.017	3839.000
1.211	0.622	-20.635	0.140	-0.044	-0.009	3899.000
1.406	-0.270	-18.809	0.119	-0.080	0.023	3979.000
0.979	-0.165	-18.748	0.113	-0.028	0.008	3979.000
0.450	-0.100	-18.827	0.115	-0.049	-0.006	3999.000
-3.361	-0.823	-19.484	0.137	-0.111	-0.004	3987.000
-2.336	-0.723	-19.479	0.116	-0.061	-0.000	3914.000
-4.722	-0.508	-18.891	0.158	-0.119	-0.034	3803.000
-0.068	-0.679	-19.278	0.112	-0.146	-0.003	3675.000
-3.512	-0.957	-19.798	0.136	-0.106	-0.004	3624.000
-1.758	-0.135	-19.221	0.117	-0.115	-0.017	3322.000
-1.698	-0.241	-19.287	0.127	-0.131	-0.003	3193.000
-2.004	-0.536	-21.110	0.132	-0.142	-0.015	2898.000
-1.386	-0.175	-20.207	0.125	-0.138	-0.002	2557.000
-2.147	0.127	-20.042	0.117	-0.155	-0.021	2303.000
-0.253	0.100	-18.422	0.111	-0.132	-0.004	1960.000
-1.697	0.378	-17.800	0.092	-0.146	-0.011	1584.000
-2.257	-0.051	-18.200	0.108	-0.179	-0.005	1315.000
-2.094	-0.009	-18.205	0.099	-0.177	-0.023	1315.000
-2.684	0.110	-17.948	0.104	-0.184	-0.013	857.000
-0.806	0.128	-17.670	0.097	-0.196	0.004	621.000
-2.197	-0.618	-17.257	0.109	-0.153	-0.026	391.000
-1.271	0.151	-18.165	0.109	-0.186	-0.009	302.000
-2.507	-0.890	-19.935	0.125	-0.182	-0.010	138.000
1.321	-0.275	-18.410	0.104	-0.207	0.003	49.000
-2.165	-0.999	-19.366	0.152	-0.202	-0.029	18.000
-2.896	0.090	-20.528	0.125	-0.237	-0.003	0.000
-0.633	-0.257	-19.953	0.117	-0.185	-0.012	0.000
0.292	0.408	-20.755	0.119	-0.147	0.004	24.000
3.818	0.713	-20.854	0.107	-0.116	0.022	74.000
1.200	0.654	-21.226	0.148	-0.111	0.001	146.000
3.842	0.395	-21.998	0.124	-0.098	0.032	308.000
1.110	0.799	-21.864	0.149	-0.132	-0.020	438.000
3.218	-0.235	-21.566	0.120	-0.145	0.011	555.000
1.336	0.169	-22.206	0.132	-0.100	0.017	794.000
3.206	-0.209	-22.693	0.131	-0.117	0.017	1134.000
2.759	0.354	-22.941	0.137	-0.087	0.015	1395.000
2.860	-0.232	-22.697	0.142	-0.087	-0.001	1684.000
1.680	-0.078	-22.836	0.134	-0.082	0.021	1928.000
2.752	-0.340	-20.724	0.130	-0.055	-0.002	2394.000
2.196	-0.283	-20.366	0.120	-0.062	0.012	2707.000
2.932	-0.417	-20.488	0.123	-0.039	0.002	2707.000
2.354	-0.024	-20.914	0.131	-0.034	0.011	3243.000
1.885	0.196	-20.590	0.132	-0.027	-0.004	3421.000
2.389	-0.016	-21.232	0.135	-0.049	0.014	3467.000
1.940	-0.262	-20.336	0.126	-0.024	0.024	3467.000
0.548	-1.237	-20.815	0.111	0.034	-0.002	3837.000
6.374	-0.990	-18.271	0.094	-0.084	0.013	3905.000
2.485	0.253	-20.323	0.134	0.002	0.026	3985.000
1.666	-0.458	-19.456	0.119	-0.047	-0.002	4000.000
-1.297	-0.379	-19.451	0.116	-0.084	-0.009	3998.000
-2.376	-0.518	-18.980	0.116	-0.122	-0.004	3966.000
-3.008	-1.216	-19.725	0.111	-0.106	-0.026	3966.000
-1.594	-0.875	-17.933	0.112	-0.145	-0.009	3721.000
-3.267	-0.608	-19.435	0.133	-0.124	-0.020	3637.000
-1.778	-0.177	-18.714	0.112	-0.120	-0.006	3388.000
-2.333	-0.064	-19.311	0.129	-0.131	-0.017	3388.000
-2.412	-0.526	-18.321	0.120	-0.134	-0.004	3388.000
-2.708	-0.040	-18.133	0.121	-0.135	-0.014	2679.000
-2.075	-0.349	-17.888	0.122	-0.133	-0.019	2582.000
-1.160	-0.386	-17.677	0.115	-0.137	-0.006	2582.000
-1.751	-0.388	-18.947	0.134	-0.152	-0.011	1628.000
-1.257	-0.233	-17.743	0.119	-0.148	-0.008	1539.000
-0.765	-0.312	-17.209	0.114	-0.137	-0.008	1090.000
-1.631	-0.064	-18.096	0.118	-0.152	-0.009	885.000
-0.987	-0.556	-17.386	0.105	-0.168	-0.010	614.000
-1.169	-0.308	-18.018	0.122	-0.176	-0.017	488.000
-1.983	-0.254	-19.060	0.125	-0.190	-0.019	272.000
0.553	-0.532	-19.271	0.120	-0.242	0.011	228.000
-5.093	-0.265	-18.330	0.135	-0.197	-0.013	228.000
-1.608	0.115	-20.657	0.112	-0.229	-0.022	29.000
-0.698	-0.038	-19.927	0.134	-0.188	-0.004	0.000
-1.510	-0.443	-20.324	0.136	-0.198	-0.017	0.000
0.596	0.069	-21.308	0.140	-0.161	0.002	20.000
1.789	-0.084	-21.094	0.130	-0.177	0.001	80.000
3.116	1.921	-21.045	0.124	-0.132	0.014	166.000
2.908	-0.434	-22.265	0.131	-0.129	0.013	287.000
2.945	-0.455	-21.145	0.119	-0.081	0.010	430.000
3.144	-0.901	-20.774	0.118	-0.124	-0.010	637.000
2.635	-0.072	-21.036	0.137	-0.100	0.013	775.000
2.493	-0.115	-21.856	0.131	-0.108	0.009	1065.000
1.912	0.077	-21.996	0.139	-0.105	0.013	1065.000
2.771	-0.130	-22.941	0.131	-0.083	0.004	1707.000
3.190	-0.286	-21.516	0.134	-0.076	0.013	2008.000
2.236	-0.317	-23.160	0.136	-0.063	0.011	2377.000
2.555	0.042	-21.292	0.127	-0.059	0.014	2637.000
2.339	0.204	-21.576	0.126	-0.054	0.010	2883.000
1.742	-0.089	-20.407	0.117	-0.049	0.013	2975.000
2.429	0.132	-21.000	0.129	-0.045	-0.006	2975.000
2.867	0.058	-21.267	0.134	-0.030	0.027	3532.000
2.394	0.036	-21.165	0.121	-0.063	0.003	3719.000
-1.128	-0.128	-20.340	0.127	-0.008	-0.004	3831.000
3.614	-1.472	-18.560	0.099	-0.072	0.008	3860.000
0.991	0.440	-20.175	0.130	-0.035	0.004	3947.000
0.910	-0.148	-18.458	0.109	-0.049	0.028	3947.000
1.474	-0.283	-18.091	0.113	-0.031	-0.011	4000.000
-0.956	-0.418	-19.320	0.120	-0.102	-0.000	3995.000
-2.636	-0.739	-18.453	0.113	-0.124	-0.006	3942.000
-3.251	-1.090	-19.892	0.110	-0.104	-0.033	3836.000
-1.838	-0.927	-17.822	0.125	-0.142	-0.008	3803.000
-3.328	-0.317	-19.386	0.138	-0.120	-0.014	3596.000
-1.544	-0.013	-18.108	0.113	-0.119	-0.011	3432.000
-2.202	-0.209	-18.412	0.124	-0.136	-0.010	3251.000
-2.578	-0.509	-18.901	0.127	-0.134	-0.007	3025.000
-2.691	-0.334	-18.578	0.121	-0.136	-0.015	3025.000
-2.792	-0.365	-20.205	0.136	-0.156	-0.018	2376.000
-2.356	-0.550	-19.186	0.124	-0.159	-0.009	2019.000
-1.882	-0.606	-18.737	0.133	-0.157	-0.015	1683.000
-1.782	-0.467	-19.111	0.131	-0.156	-0.011	1375.000
-1.411	-0.548	-18.374	0.125	-0.153	-0.003	1227.000
-2.035	-0.375	-17.700	0.113	-0.162	-0.013	1227.000
-1.112	-0.234	-17.370	0.114	-0.165	-0.021	665.000
-1.807	-0.154	-19.109	0.130	-0.188	-0.010	433.000
-1.736	-0.465	-19.542	0.128	-0.198	-0.009	276.000
0.087	-0.624	-18.952	0.129	-0.246	-0.003	240.000
-5.188	-0.382	-18.216	0.140	-0.213	-0.016	240.000
-1.698	-0.265	-19.711	0.112	-0.224	-0.017	18.000
-0.442	-0.112	-19.167	0.131	-0.183	-0.008	3.000
-1.571	-0.551	-19.113	0.124	-0.192	-0.012	0.000
0.415	0.320	-20.068	0.123	-0.142	0.001	3.000
2.049	0.882	-20.806	0.094	-0.091	0.012	90.000
5.031	-0.106	-20.945	0.117	-0.180	0.027	128.000
0.724	0.459	-23.079	0.125	-0.078	0.014	128.000
3.388	-0.690	-21.384	0.127	-0.172	0.001	461.000
1.351	-0.354	-22.510	0.132	-0.108	0.016	643.000
3.453	0.419	-21.781	0.137	-0.135	0.019	787.000
1.849	0.384	-22.515	0.138	-0.092	0.003	1013.000
2.950	0.027	-22.440	0.137	-0.108	0.020	1225.000
2.563	-0.214	-23.596	0.147	-0.081	0.013	1225.000
3.139	-0.408	-23.943	0.148	-0.079	0.013	2007.000
3.126	-0.137	-23.888	0.147	-0.050	0.007	2302.000
2.800	-0.230	-23.390	0.143	-0.075	0.010	2651.000
2.895	-0.296	-21.830	0.140	-0.037	0.015	2907.000
2.848	-0.337	-22.068	0.129	-0.039	-0.002	2907.000
3.396	-0.221	-20.604	0.134	-0.046	0.028	3427.000
2.110	-0.393	-21.770	0.142	-0.024	0.003	3570.000
2.832	-0.426	-20.895	0.123	-0.036	0.017	3720.000
-0.099	1.028	-20.316	0.128	0.041	-0.006	3835.000
2.869	0.496	-19.358	0.125	-0.043	0.011	3905.000
2.833	-0.515	-18.595	0.119	0.007	0.021	3968.000
0.707	-0.478	-19.019	0.117	-0.054	-0.013	3968.000
1.470	-0.218	-19.212	0.117	-0.036	0.012	4000.000
0.530	-0.297	-18.844	0.119	-0.040	0.002	3997.000
-3.067	-0.848	-18.826	0.129	-0.118	-0.001	3976.000
-2.656	-0.623	-19.248	0.108	-0.040	-0.007	3976.000
